wavelength, flux
   240, 0.000e+00
   260, 0.000e+00
   280, 0.000e+00
   300, 0.000e+00
   320, 0.000e+00
   340, 0.000e+00
   360, 0.000e+00
   380, 0.000e+00
   400, 0.000e+00
   420, 0.000e+00
   440, 0.000e+00
   460, 0.000e+00
   480, 0.000e+00
   500, 0.000e+00
   520, 0.000e+00
   540, 0.000e+00
   560, 0.000e+00
   580, 0.000e+00
   600, 0.000e+00
   620, 0.000e+00
   640, 0.000e+00
   660, 0.000e+00
   680, 0.000e+00
   700, 0.000e+00
   720, 0.000e+00
   740, 0.000e+00
   760, 0.000e+00
   780, 0.000e+00
   800, 0.000e+00
   820, 0.000e+00
   840, 0.000e+00
   860, 0.000e+00
   880, 0.000e+00
   900, 0.000e+00
   920, 0.000e+00
   940, 0.000e+00
   960, 0.000e+00
   980, 0.000e+00
  1000, 0.000e+00
  1020, 0.000e+00
  1040, 0.000e+00
  1060, 0.000e+00
  1080, 0.000e+00
  1100, 0.000e+00
  1120, 4.027e-09
  1140, 3.991e-09
  1160, 4.027e-09
  1180, 2.565e-09
  1200, 9.142e-10
  1220, 3.229e-10
  1240, 2.361e-09
  1260, 5.559e-09
  1280, 8.650e-09
  1300, 9.058e-09
  1320, 9.226e-09
  1340, 1.040e-08
  1360, 1.050e-08
  1380, 1.021e-08
  1400, 1.239e-08
  1420, 1.334e-08
  1440, 1.334e-08
  1460, 1.462e-08
  1480, 1.297e-08
  1500, 1.589e-08
  1520, 1.449e-08
  1540, 1.517e-08
  1560, 1.462e-08
  1580, 1.531e-08
  1600, 1.422e-08
  1620, 1.321e-08
  1640, 1.239e-08
  1660, 1.239e-08
  1680, 1.274e-08
  1700, 1.274e-08
  1720, 1.205e-08
  1740, 1.262e-08
  1760, 1.239e-08
  1780, 1.262e-08
  1800, 1.239e-08
  1820, 1.162e-08
  1840, 1.140e-08
  1860, 1.162e-08
  1880, 1.140e-08
  1900, 1.120e-08
  1920, 1.120e-08
  1940, 1.099e-08
  1960, 1.069e-08
  1980, 1.021e-08
  2000, 9.751e-09
  2020, 9.398e-09
  2040, 9.398e-09
  2060, 8.975e-09
  2080, 9.142e-09
  2100, 8.893e-09
  2120, 8.811e-09
  2140, 8.036e-09
  2160, 8.185e-09
  2180, 7.962e-09
  2200, 8.036e-09
  2220, 7.674e-09
  2240, 7.465e-09
  2260, 7.397e-09
  2280, 7.534e-09
  2300, 7.465e-09
  2320, 7.129e-09
  2340, 6.808e-09
  2360, 6.562e-09
  2380, 6.325e-09
  2400, 6.209e-09
  2420, 6.442e-09
  2440, 6.684e-09
  2460, 6.871e-09
  2480, 6.562e-09
  2500, 6.808e-09
  2520, 6.383e-09
  2540, 5.985e-09
  2560, 6.623e-09
  2580, 6.808e-09
  2600, 6.383e-09
  2620, 6.267e-09
  2640, 6.746e-09
  2660, 6.746e-09
  2680, 6.746e-09
  2700, 6.623e-09
  2720, 6.623e-09
  2740, 6.325e-09
  2760, 6.267e-09
  2780, 6.040e-09
  2800, 5.821e-09
  2820, 6.267e-09
  2840, 6.502e-09
  2860, 6.209e-09
  2880, 6.096e-09
  2900, 6.267e-09
  2920, 6.442e-09
  2940, 6.209e-09
  2960, 6.267e-09
  2980, 6.267e-09
  3000, 6.325e-09
  3020, 6.442e-09
  3040, 6.442e-09
  3060, 6.267e-09
  3080, 6.383e-09
  3100, 6.383e-09
  3120, 6.325e-09
  3140, 6.325e-09
  3160, 6.383e-09
  3180, 6.325e-09
  3200, 6.325e-09
  3220, 6.325e-09
  3240, 6.209e-09
  3260, 6.267e-09
  3280, 6.209e-09
  3300, 6.383e-09
  3320, 6.267e-09
  3340, 6.209e-09
  3360, 6.152e-09
  3380, 6.096e-09
  3400, 6.096e-09
  3420, 6.040e-09
  3440, 5.930e-09
  3460, 5.930e-09
  3480, 5.930e-09
  3500, 5.875e-09
  3520, 5.821e-09
  3540, 5.768e-09
  3560, 5.715e-09
  3580, 5.663e-09
  3600, 5.611e-09
  3650, 5.508e-09
  3700, 5.559e-09
  3750, 7.129e-09
  3800, 9.142e-09
  3850, 1.002e-08
  3900, 9.841e-09
  3950, 9.485e-09
  4000, 1.069e-08
  4050, 1.069e-08
  4100, 8.185e-09
  4150, 9.841e-09
  4200, 9.573e-09
  4250, 9.312e-09
  4300, 8.650e-09
  4350, 7.064e-09
  4400, 8.415e-09
  4450, 8.185e-09
  4500, 7.889e-09
  4550, 7.674e-09
  4600, 7.465e-09
  4650, 7.262e-09
  4700, 6.999e-09
  4750, 6.808e-09
  4800, 6.623e-09
  4850, 5.261e-09
  4900, 6.152e-09
  4950, 6.096e-09
  5000, 5.875e-09
  5050, 5.715e-09
  5100, 5.508e-09
  5150, 5.358e-09
  5200, 5.165e-09
  5250, 4.978e-09
  5300, 4.842e-09
  5350, 4.710e-09
  5400, 4.624e-09
  5450, 4.498e-09
  5500, 4.376e-09
  5550, 4.256e-09
  5600, 4.140e-09
  5650, 4.027e-09
  5700, 3.918e-09
  5750, 3.811e-09
  5800, 3.707e-09
  5850, 3.639e-09
  5900, 3.540e-09
  5950, 3.476e-09
  6000, 3.381e-09
  6050, 3.289e-09
  6100, 3.199e-09
  6150, 3.112e-09
  6200, 3.027e-09
  6250, 2.945e-09
  6300, 2.864e-09
  6350, 2.786e-09
  6400, 2.710e-09
  6450, 2.637e-09
  6500, 2.565e-09
  6550, 2.173e-09
  6600, 2.449e-09
  6650, 2.405e-09
  6700, 2.361e-09
  6750, 2.296e-09
  6800, 2.254e-09
  6850, 2.213e-09
  6900, 2.153e-09
  6950, 2.114e-09
  7000, 2.075e-09
  7050, 2.019e-09
  7100, 1.982e-09
  7150, 1.928e-09
  7200, 1.892e-09
  7250, 1.858e-09
  7300, 1.824e-09
  7350, 1.774e-09
  7400, 1.742e-09
  7450, 1.694e-09
  7500, 1.664e-09
  7550, 1.633e-09
  7600, 1.589e-09
  7650, 1.560e-09
  7700, 1.531e-09
  7750, 1.476e-09
  7800, 1.449e-09
  7850, 1.422e-09
  7900, 1.396e-09
  7950, 1.371e-09
  8000, 1.346e-09
  8050, 1.321e-09
  8100, 1.297e-09
  8150, 1.274e-09
  8200, 1.250e-09
  8250, 1.228e-09
  8300, 1.205e-09
  8350, 1.183e-09
  8400, 1.162e-09
  8450, 1.140e-09
  8500, 1.089e-09
  8550, 1.069e-09
  8600, 1.089e-09
  8650, 1.079e-09
  8700, 1.109e-09
  8750, 1.069e-09
  8800, 1.089e-09
  8850, 9.142e-10
  8900, 1.021e-09
  8950, 1.079e-09
  9000, 8.811e-10
  9050, 9.573e-10
  9100, 1.021e-09
  9150, 1.002e-09
  9200, 9.058e-10
  9250, 8.036e-10
  9300, 9.485e-10
  9350, 9.312e-10
  9400, 9.142e-10
  9450, 8.893e-10
  9500, 8.492e-10
  9550, 6.684e-10
  9600, 8.185e-10
  9650, 8.185e-10
  9700, 7.962e-10
  9750, 7.817e-10
  9800, 7.674e-10
  9850, 7.534e-10
  9900, 7.397e-10
  9950, 7.262e-10
 10000, 6.999e-10
 12500, 3.573e-10
 22000, 3.918e-11
 34000, 8.337e-12
