wavelength, flux
   240, 0.000e+00
   260, 0.000e+00
   280, 0.000e+00
   300, 0.000e+00
   320, 0.000e+00
   340, 0.000e+00
   360, 0.000e+00
   380, 0.000e+00
   400, 0.000e+00
   420, 0.000e+00
   440, 0.000e+00
   460, 0.000e+00
   480, 0.000e+00
   500, 0.000e+00
   520, 0.000e+00
   540, 0.000e+00
   560, 0.000e+00
   580, 0.000e+00
   600, 0.000e+00
   620, 0.000e+00
   640, 0.000e+00
   660, 0.000e+00
   680, 0.000e+00
   700, 0.000e+00
   720, 0.000e+00
   740, 0.000e+00
   760, 0.000e+00
   780, 0.000e+00
   800, 0.000e+00
   820, 0.000e+00
   840, 0.000e+00
   860, 0.000e+00
   880, 0.000e+00
   900, 0.000e+00
   920, 0.000e+00
   940, 0.000e+00
   960, 0.000e+00
   980, 0.000e+00
  1000, 0.000e+00
  1020, 0.000e+00
  1040, 0.000e+00
  1060, 0.000e+00
  1080, 0.000e+00
  1100, 0.000e+00
  1120, 1.710e-11
  1140, 1.571e-11
  1160, 1.480e-11
  1180, 8.555e-12
  1200, 4.245e-12
  1220, 4.020e-12
  1240, 6.999e-11
  1260, 3.112e-10
  1280, 1.449e-09
  1300, 2.254e-09
  1320, 3.444e-09
  1340, 4.065e-09
  1360, 4.140e-09
  1380, 4.540e-09
  1400, 4.798e-09
  1420, 5.358e-09
  1440, 5.508e-09
  1460, 6.152e-09
  1480, 5.821e-09
  1500, 6.808e-09
  1520, 6.808e-09
  1540, 6.935e-09
  1560, 6.746e-09
  1580, 6.623e-09
  1600, 6.383e-09
  1620, 5.875e-09
  1640, 5.715e-09
  1660, 5.309e-09
  1680, 5.768e-09
  1700, 5.663e-09
  1720, 5.611e-09
  1740, 5.663e-09
  1760, 5.715e-09
  1780, 5.768e-09
  1800, 5.821e-09
  1820, 5.611e-09
  1840, 5.508e-09
  1860, 5.611e-09
  1880, 5.508e-09
  1900, 5.309e-09
  1920, 5.212e-09
  1940, 5.117e-09
  1960, 4.978e-09
  1980, 4.754e-09
  2000, 4.540e-09
  2020, 4.416e-09
  2040, 4.335e-09
  2060, 4.256e-09
  2080, 4.217e-09
  2100, 4.179e-09
  2120, 3.954e-09
  2140, 3.846e-09
  2160, 3.918e-09
  2180, 3.741e-09
  2200, 3.673e-09
  2220, 3.573e-09
  2240, 3.573e-09
  2260, 3.381e-09
  2280, 3.508e-09
  2300, 3.444e-09
  2320, 3.381e-09
  2340, 3.259e-09
  2360, 3.259e-09
  2380, 3.112e-09
  2400, 3.083e-09
  2420, 3.199e-09
  2440, 3.229e-09
  2460, 3.170e-09
  2480, 3.141e-09
  2500, 3.199e-09
  2520, 3.141e-09
  2540, 2.945e-09
  2560, 3.027e-09
  2580, 3.141e-09
  2600, 3.112e-09
  2620, 3.141e-09
  2640, 3.170e-09
  2660, 3.170e-09
  2680, 3.083e-09
  2700, 3.055e-09
  2720, 3.083e-09
  2740, 2.999e-09
  2760, 2.891e-09
  2780, 2.918e-09
  2800, 2.661e-09
  2820, 3.083e-09
  2840, 2.945e-09
  2860, 2.891e-09
  2880, 2.891e-09
  2900, 2.972e-09
  2920, 2.891e-09
  2940, 2.838e-09
  2960, 2.864e-09
  2980, 2.864e-09
  3000, 2.891e-09
  3020, 2.891e-09
  3040, 2.891e-09
  3060, 2.838e-09
  3080, 2.864e-09
  3100, 2.891e-09
  3120, 2.891e-09
  3140, 2.891e-09
  3160, 2.864e-09
  3180, 2.864e-09
  3200, 2.864e-09
  3220, 2.812e-09
  3240, 2.812e-09
  3260, 2.838e-09
  3280, 2.864e-09
  3300, 2.864e-09
  3320, 2.838e-09
  3340, 2.786e-09
  3360, 2.761e-09
  3380, 2.761e-09
  3400, 2.735e-09
  3420, 2.710e-09
  3440, 2.710e-09
  3460, 2.661e-09
  3480, 2.637e-09
  3500, 2.612e-09
  3520, 2.637e-09
  3540, 2.686e-09
  3560, 2.565e-09
  3580, 2.495e-09
  3600, 2.588e-09
  3650, 2.565e-09
  3700, 2.735e-09
  3750, 3.141e-09
  3800, 4.498e-09
  3850, 5.165e-09
  3900, 5.165e-09
  3950, 5.611e-09
  4000, 6.442e-09
  4050, 6.999e-09
  4100, 4.540e-09
  4150, 6.562e-09
  4200, 6.623e-09
  4250, 6.325e-09
  4300, 5.768e-09
  4350, 3.954e-09
  4400, 5.663e-09
  4450, 5.559e-09
  4500, 5.408e-09
  4550, 5.212e-09
  4600, 5.070e-09
  4650, 4.932e-09
  4700, 4.798e-09
  4750, 4.624e-09
  4800, 4.416e-09
  4850, 3.112e-09
  4900, 3.882e-09
  4950, 4.102e-09
  5000, 4.027e-09
  5050, 3.882e-09
  5100, 3.776e-09
  5150, 3.673e-09
  5200, 3.573e-09
  5250, 3.476e-09
  5300, 3.381e-09
  5350, 3.289e-09
  5400, 3.229e-09
  5450, 3.141e-09
  5500, 3.055e-09
  5550, 2.972e-09
  5600, 2.891e-09
  5650, 2.812e-09
  5700, 2.735e-09
  5750, 2.661e-09
  5800, 2.588e-09
  5850, 2.541e-09
  5900, 2.472e-09
  5950, 2.405e-09
  6000, 2.361e-09
  6050, 2.296e-09
  6100, 2.234e-09
  6150, 2.173e-09
  6200, 2.133e-09
  6250, 2.094e-09
  6300, 2.037e-09
  6350, 1.982e-09
  6400, 1.945e-09
  6450, 1.892e-09
  6500, 1.824e-09
  6550, 1.449e-09
  6600, 1.648e-09
  6650, 1.726e-09
  6700, 1.694e-09
  6750, 1.664e-09
  6800, 1.633e-09
  6850, 1.589e-09
  6900, 1.560e-09
  6950, 1.531e-09
  7000, 1.489e-09
  7050, 1.462e-09
  7100, 1.436e-09
  7150, 1.409e-09
  7200, 1.384e-09
  7250, 1.346e-09
  7300, 1.321e-09
  7350, 1.297e-09
  7400, 1.262e-09
  7450, 1.239e-09
  7500, 1.205e-09
  7550, 1.183e-09
  7600, 1.162e-09
  7650, 1.140e-09
  7700, 1.109e-09
  7750, 1.079e-09
  7800, 1.069e-09
  7850, 1.050e-09
  7900, 1.030e-09
  7950, 1.012e-09
  8000, 9.932e-10
  8050, 9.751e-10
  8100, 9.573e-10
  8150, 9.398e-10
  8200, 9.226e-10
  8250, 9.058e-10
  8300, 8.893e-10
  8350, 8.730e-10
  8400, 8.571e-10
  8450, 8.337e-10
  8500, 8.185e-10
  8550, 8.036e-10
  8600, 8.185e-10
  8650, 8.185e-10
  8700, 8.337e-10
  8750, 8.036e-10
  8800, 8.110e-10
  8850, 6.871e-10
  8900, 7.674e-10
  8950, 8.110e-10
  9000, 6.562e-10
  9050, 7.195e-10
  9100, 7.745e-10
  9150, 7.604e-10
  9200, 6.808e-10
  9250, 6.040e-10
  9300, 7.195e-10
  9350, 7.129e-10
  9400, 6.999e-10
  9450, 6.871e-10
  9500, 6.562e-10
  9550, 5.117e-10
  9600, 6.383e-10
  9650, 6.383e-10
  9700, 6.325e-10
  9750, 6.209e-10
  9800, 6.096e-10
  9850, 5.985e-10
  9900, 5.821e-10
  9950, 5.768e-10
 10000, 5.559e-10
 12500, 2.661e-10
 22000, 2.999e-11
 34000, 6.383e-12
