wavelength, flux
   240, 0.000e+00
   260, 0.000e+00
   280, 0.000e+00
   300, 0.000e+00
   320, 0.000e+00
   340, 0.000e+00
   360, 0.000e+00
   380, 0.000e+00
   400, 0.000e+00
   420, 0.000e+00
   440, 0.000e+00
   460, 0.000e+00
   480, 0.000e+00
   500, 0.000e+00
   520, 0.000e+00
   540, 0.000e+00
   560, 0.000e+00
   580, 0.000e+00
   600, 0.000e+00
   620, 0.000e+00
   640, 0.000e+00
   660, 0.000e+00
   680, 0.000e+00
   700, 0.000e+00
   720, 0.000e+00
   740, 0.000e+00
   760, 0.000e+00
   780, 0.000e+00
   800, 0.000e+00
   820, 0.000e+00
   840, 0.000e+00
   860, 0.000e+00
   880, 0.000e+00
   900, 0.000e+00
   920, 0.000e+00
   940, 0.000e+00
   960, 0.000e+00
   980, 0.000e+00
  1000, 0.000e+00
  1020, 0.000e+00
  1040, 0.000e+00
  1060, 0.000e+00
  1080, 0.000e+00
  1100, 0.000e+00
  1120, 2.835e-14
  1140, 3.583e-14
  1160, 4.987e-14
  1180, 6.244e-14
  1200, 6.954e-14
  1220, 9.599e-14
  1240, 3.680e-13
  1260, 1.063e-12
  1280, 2.318e-12
  1300, 3.570e-12
  1320, 5.193e-12
  1340, 7.064e-12
  1360, 7.195e-12
  1380, 8.036e-12
  1400, 9.142e-12
  1420, 1.024e-11
  1440, 1.380e-11
  1460, 2.094e-11
  1480, 2.133e-11
  1500, 2.588e-11
  1520, 1.436e-10
  1540, 2.173e-10
  1560, 1.531e-10
  1580, 2.056e-10
  1600, 2.495e-10
  1620, 2.786e-10
  1640, 3.112e-10
  1660, 3.199e-10
  1680, 3.573e-10
  1700, 4.296e-10
  1720, 5.309e-10
  1740, 6.096e-10
  1760, 6.808e-10
  1780, 6.935e-10
  1800, 8.261e-10
  1820, 8.492e-10
  1840, 7.397e-10
  1860, 7.817e-10
  1880, 8.415e-10
  1900, 8.185e-10
  1920, 7.889e-10
  1940, 8.492e-10
  1960, 8.811e-10
  1980, 8.337e-10
  2000, 7.397e-10
  2020, 6.935e-10
  2040, 7.262e-10
  2060, 7.397e-10
  2080, 7.465e-10
  2100, 7.397e-10
  2120, 6.684e-10
  2140, 6.267e-10
  2160, 6.267e-10
  2180, 6.096e-10
  2200, 6.325e-10
  2220, 5.985e-10
  2240, 5.821e-10
  2260, 5.309e-10
  2280, 5.875e-10
  2300, 5.715e-10
  2320, 5.358e-10
  2340, 4.582e-10
  2360, 4.798e-10
  2380, 4.667e-10
  2400, 4.376e-10
  2420, 4.932e-10
  2440, 5.358e-10
  2460, 5.212e-10
  2480, 5.070e-10
  2500, 5.715e-10
  2520, 4.932e-10
  2540, 4.416e-10
  2560, 5.117e-10
  2580, 5.768e-10
  2600, 5.408e-10
  2620, 5.408e-10
  2640, 6.502e-10
  2660, 7.064e-10
  2680, 6.442e-10
  2700, 6.325e-10
  2720, 6.267e-10
  2740, 6.267e-10
  2760, 5.458e-10
  2780, 6.267e-10
  2800, 4.798e-10
  2820, 7.064e-10
  2840, 6.808e-10
  2860, 6.502e-10
  2880, 6.562e-10
  2900, 6.999e-10
  2920, 7.195e-10
  2940, 7.129e-10
  2960, 7.129e-10
  2980, 7.329e-10
  3000, 7.674e-10
  3020, 7.745e-10
  3040, 7.745e-10
  3060, 7.817e-10
  3080, 8.036e-10
  3100, 7.962e-10
  3120, 7.817e-10
  3140, 8.110e-10
  3160, 8.261e-10
  3180, 8.110e-10
  3200, 8.110e-10
  3220, 7.889e-10
  3240, 7.962e-10
  3260, 8.261e-10
  3280, 8.337e-10
  3300, 8.492e-10
  3320, 8.650e-10
  3340, 8.492e-10
  3360, 8.337e-10
  3380, 8.110e-10
  3400, 8.185e-10
  3420, 8.261e-10
  3440, 8.261e-10
  3460, 8.110e-10
  3480, 8.036e-10
  3500, 7.962e-10
  3520, 8.110e-10
  3540, 8.185e-10
  3560, 8.261e-10
  3580, 7.962e-10
  3600, 8.185e-10
  3650, 8.337e-10
  3700, 8.571e-10
  3750, 1.021e-09
  3800, 1.346e-09
  3850, 1.531e-09
  3900, 1.574e-09
  3950, 1.503e-09
  4000, 1.963e-09
  4050, 2.114e-09
  4100, 1.517e-09
  4150, 2.094e-09
  4200, 2.056e-09
  4250, 2.019e-09
  4300, 1.807e-09
  4350, 1.449e-09
  4400, 1.910e-09
  4450, 1.858e-09
  4500, 1.807e-09
  4550, 1.774e-09
  4600, 1.742e-09
  4650, 1.694e-09
  4700, 1.648e-09
  4750, 1.603e-09
  4800, 1.560e-09
  4850, 1.151e-09
  4900, 1.396e-09
  4950, 1.422e-09
  5000, 1.396e-09
  5050, 1.371e-09
  5100, 1.321e-09
  5150, 1.285e-09
  5200, 1.274e-09
  5250, 1.250e-09
  5300, 1.216e-09
  5350, 1.194e-09
  5400, 1.162e-09
  5450, 1.130e-09
  5500, 1.109e-09
  5550, 1.089e-09
  5600, 1.069e-09
  5650, 1.050e-09
  5700, 1.021e-09
  5750, 1.002e-09
  5800, 9.751e-10
  5850, 9.573e-10
  5900, 9.312e-10
  5950, 9.058e-10
  6000, 8.893e-10
  6050, 8.650e-10
  6100, 8.492e-10
  6150, 8.261e-10
  6200, 8.110e-10
  6250, 7.889e-10
  6300, 7.745e-10
  6350, 7.604e-10
  6400, 7.397e-10
  6450, 7.262e-10
  6500, 7.129e-10
  6550, 5.408e-10
  6600, 6.871e-10
  6650, 6.684e-10
  6700, 6.562e-10
  6750, 6.442e-10
  6800, 6.325e-10
  6850, 6.209e-10
  6900, 6.096e-10
  6950, 5.985e-10
  7000, 5.875e-10
  7050, 5.768e-10
  7100, 5.663e-10
  7150, 5.559e-10
  7200, 5.458e-10
  7250, 5.358e-10
  7300, 5.261e-10
  7350, 5.165e-10
  7400, 5.117e-10
  7450, 5.024e-10
  7500, 4.932e-10
  7550, 4.842e-10
  7600, 4.754e-10
  7650, 4.667e-10
  7700, 4.582e-10
  7750, 4.457e-10
  7800, 4.376e-10
  7850, 4.335e-10
  7900, 4.256e-10
  7950, 4.179e-10
  8000, 4.102e-10
  8050, 4.065e-10
  8100, 3.954e-10
  8150, 3.918e-10
  8200, 3.846e-10
  8250, 3.776e-10
  8300, 3.707e-10
  8350, 3.673e-10
  8400, 3.606e-10
  8450, 3.540e-10
  8500, 3.476e-10
  8550, 3.319e-10
  8600, 3.508e-10
  8650, 3.350e-10
  8700, 3.540e-10
  8750, 3.412e-10
  8800, 3.444e-10
  8850, 3.083e-10
  8900, 3.259e-10
  8950, 3.381e-10
  9000, 2.945e-10
  9050, 3.112e-10
  9100, 3.259e-10
  9150, 3.199e-10
  9200, 2.972e-10
  9250, 2.735e-10
  9300, 3.027e-10
  9350, 2.972e-10
  9400, 2.945e-10
  9450, 2.891e-10
  9500, 2.786e-10
  9550, 2.339e-10
  9600, 2.710e-10
  9650, 2.710e-10
  9700, 2.661e-10
  9750, 2.637e-10
  9800, 2.588e-10
  9850, 2.541e-10
  9900, 2.518e-10
  9950, 2.472e-10
 10000, 2.449e-10
 12500, 1.250e-10
 22000, 1.555e-11
 34000, 3.350e-12
