wavelength, flux
   240, 0.000e+00
   260, 0.000e+00
   280, 0.000e+00
   300, 0.000e+00
   320, 0.000e+00
   340, 0.000e+00
   360, 0.000e+00
   380, 0.000e+00
   400, 0.000e+00
   420, 0.000e+00
   440, 0.000e+00
   460, 0.000e+00
   480, 0.000e+00
   500, 0.000e+00
   520, 0.000e+00
   540, 0.000e+00
   560, 0.000e+00
   580, 0.000e+00
   600, 0.000e+00
   620, 0.000e+00
   640, 0.000e+00
   660, 0.000e+00
   680, 0.000e+00
   700, 0.000e+00
   720, 0.000e+00
   740, 0.000e+00
   760, 0.000e+00
   780, 0.000e+00
   800, 0.000e+00
   820, 0.000e+00
   840, 0.000e+00
   860, 0.000e+00
   880, 0.000e+00
   900, 0.000e+00
   920, 0.000e+00
   940, 0.000e+00
   960, 0.000e+00
   980, 0.000e+00
  1000, 0.000e+00
  1020, 0.000e+00
  1040, 0.000e+00
  1060, 0.000e+00
  1080, 0.000e+00
  1100, 0.000e+00
  1120, 5.924e-15
  1140, 7.660e-15
  1160, 1.099e-14
  1180, 1.411e-14
  1200, 1.668e-14
  1220, 2.354e-14
  1240, 8.852e-14
  1260, 1.849e-13
  1280, 2.529e-13
  1300, 3.118e-13
  1320, 3.769e-13
  1340, 4.548e-13
  1360, 5.256e-13
  1380, 6.238e-13
  1400, 7.506e-13
  1420, 8.852e-13
  1440, 1.070e-12
  1460, 1.343e-12
  1480, 1.535e-12
  1500, 1.855e-12
  1520, 2.275e-11
  1540, 3.540e-11
  1560, 2.318e-11
  1580, 3.573e-11
  1600, 4.179e-11
  1620, 4.217e-11
  1640, 5.821e-11
  1660, 7.465e-11
  1680, 1.099e-10
  1700, 1.384e-10
  1720, 2.382e-10
  1740, 2.891e-10
  1760, 3.573e-10
  1780, 3.741e-10
  1800, 4.582e-10
  1820, 4.457e-10
  1840, 3.954e-10
  1860, 3.918e-10
  1880, 4.710e-10
  1900, 4.376e-10
  1920, 4.457e-10
  1940, 4.498e-10
  1960, 4.978e-10
  1980, 4.842e-10
  2000, 4.217e-10
  2020, 4.065e-10
  2040, 4.457e-10
  2060, 4.540e-10
  2080, 4.798e-10
  2100, 4.710e-10
  2120, 4.416e-10
  2140, 4.179e-10
  2160, 4.065e-10
  2180, 4.065e-10
  2200, 4.457e-10
  2220, 4.498e-10
  2240, 4.335e-10
  2260, 4.027e-10
  2280, 3.918e-10
  2300, 4.296e-10
  2320, 3.991e-10
  2340, 3.673e-10
  2360, 3.289e-10
  2380, 3.381e-10
  2400, 2.999e-10
  2420, 3.141e-10
  2440, 3.741e-10
  2460, 3.811e-10
  2480, 3.606e-10
  2500, 3.882e-10
  2520, 3.573e-10
  2540, 3.055e-10
  2560, 3.381e-10
  2580, 4.102e-10
  2600, 3.918e-10
  2620, 3.606e-10
  2640, 4.376e-10
  2660, 5.358e-10
  2680, 4.932e-10
  2700, 4.842e-10
  2720, 4.842e-10
  2740, 4.710e-10
  2760, 3.954e-10
  2780, 4.624e-10
  2800, 3.083e-10
  2820, 4.842e-10
  2840, 5.309e-10
  2860, 4.887e-10
  2880, 5.024e-10
  2900, 5.458e-10
  2920, 5.715e-10
  2940, 5.309e-10
  2960, 5.458e-10
  2980, 5.611e-10
  3000, 5.875e-10
  3020, 6.096e-10
  3040, 6.209e-10
  3060, 6.152e-10
  3080, 6.383e-10
  3100, 6.325e-10
  3120, 6.442e-10
  3140, 6.325e-10
  3160, 6.502e-10
  3180, 6.502e-10
  3200, 6.623e-10
  3220, 6.502e-10
  3240, 6.325e-10
  3260, 6.562e-10
  3280, 6.808e-10
  3300, 7.064e-10
  3320, 7.195e-10
  3340, 6.808e-10
  3360, 6.562e-10
  3380, 6.746e-10
  3400, 6.808e-10
  3420, 6.871e-10
  3440, 6.808e-10
  3460, 6.746e-10
  3480, 6.746e-10
  3500, 6.746e-10
  3520, 6.684e-10
  3540, 6.808e-10
  3560, 6.808e-10
  3580, 6.623e-10
  3600, 6.808e-10
  3650, 6.935e-10
  3700, 7.129e-10
  3750, 8.261e-10
  3800, 1.069e-09
  3850, 1.216e-09
  3900, 1.239e-09
  3950, 1.172e-09
  4000, 1.531e-09
  4050, 1.648e-09
  4100, 1.216e-09
  4150, 1.633e-09
  4200, 1.618e-09
  4250, 1.589e-09
  4300, 1.449e-09
  4350, 1.172e-09
  4400, 1.503e-09
  4450, 1.476e-09
  4500, 1.436e-09
  4550, 1.409e-09
  4600, 1.396e-09
  4650, 1.371e-09
  4700, 1.334e-09
  4750, 1.297e-09
  4800, 1.262e-09
  4850, 9.485e-10
  4900, 1.140e-09
  4950, 1.172e-09
  5000, 1.140e-09
  5050, 1.120e-09
  5100, 1.089e-09
  5150, 1.059e-09
  5200, 1.040e-09
  5250, 1.021e-09
  5300, 1.002e-09
  5350, 9.841e-10
  5400, 9.573e-10
  5450, 9.485e-10
  5500, 9.312e-10
  5550, 9.142e-10
  5600, 8.975e-10
  5650, 8.730e-10
  5700, 8.571e-10
  5750, 8.415e-10
  5800, 8.185e-10
  5850, 8.036e-10
  5900, 7.889e-10
  5950, 7.674e-10
  6000, 7.534e-10
  6050, 7.397e-10
  6100, 7.195e-10
  6150, 7.064e-10
  6200, 6.935e-10
  6250, 6.808e-10
  6300, 6.684e-10
  6350, 6.502e-10
  6400, 6.383e-10
  6450, 6.267e-10
  6500, 6.152e-10
  6550, 4.887e-10
  6600, 5.930e-10
  6650, 5.821e-10
  6700, 5.715e-10
  6750, 5.611e-10
  6800, 5.508e-10
  6850, 5.408e-10
  6900, 5.358e-10
  6950, 5.261e-10
  7000, 5.165e-10
  7050, 5.070e-10
  7100, 4.978e-10
  7150, 4.887e-10
  7200, 4.798e-10
  7250, 4.754e-10
  7300, 4.667e-10
  7350, 4.582e-10
  7400, 4.540e-10
  7450, 4.457e-10
  7500, 4.376e-10
  7550, 4.296e-10
  7600, 4.217e-10
  7650, 4.140e-10
  7700, 4.102e-10
  7750, 3.991e-10
  7800, 3.918e-10
  7850, 3.882e-10
  7900, 3.846e-10
  7950, 3.776e-10
  8000, 3.707e-10
  8050, 3.639e-10
  8100, 3.573e-10
  8150, 3.508e-10
  8200, 3.476e-10
  8250, 3.412e-10
  8300, 3.381e-10
  8350, 3.319e-10
  8400, 3.289e-10
  8450, 3.259e-10
  8500, 3.170e-10
  8550, 3.027e-10
  8600, 3.199e-10
  8650, 3.027e-10
  8700, 3.199e-10
  8750, 3.112e-10
  8800, 3.112e-10
  8850, 2.838e-10
  8900, 2.972e-10
  8950, 3.055e-10
  9000, 2.710e-10
  9050, 2.838e-10
  9100, 2.918e-10
  9150, 2.891e-10
  9200, 2.710e-10
  9250, 2.541e-10
  9300, 2.761e-10
  9350, 2.710e-10
  9400, 2.661e-10
  9450, 2.612e-10
  9500, 2.541e-10
  9550, 2.213e-10
  9600, 2.472e-10
  9650, 2.472e-10
  9700, 2.427e-10
  9750, 2.382e-10
  9800, 2.361e-10
  9850, 2.318e-10
  9900, 2.275e-10
  9950, 2.254e-10
 10000, 2.213e-10
 12500, 1.130e-10
 22000, 1.468e-11
 34000, 3.196e-12
