wavelength, flux
   240, 0.000e+00
   260, 0.000e+00
   280, 0.000e+00
   300, 0.000e+00
   320, 0.000e+00
   340, 0.000e+00
   360, 0.000e+00
   380, 0.000e+00
   400, 0.000e+00
   420, 0.000e+00
   440, 0.000e+00
   460, 0.000e+00
   480, 0.000e+00
   500, 0.000e+00
   520, 0.000e+00
   540, 0.000e+00
   560, 0.000e+00
   580, 0.000e+00
   600, 0.000e+00
   620, 0.000e+00
   640, 0.000e+00
   660, 0.000e+00
   680, 0.000e+00
   700, 0.000e+00
   720, 0.000e+00
   740, 0.000e+00
   760, 0.000e+00
   780, 0.000e+00
   800, 0.000e+00
   820, 0.000e+00
   840, 0.000e+00
   860, 0.000e+00
   880, 0.000e+00
   900, 0.000e+00
   920, 0.000e+00
   940, 0.000e+00
   960, 0.000e+00
   980, 0.000e+00
  1000, 0.000e+00
  1020, 0.000e+00
  1040, 0.000e+00
  1060, 0.000e+00
  1080, 0.000e+00
  1100, 0.000e+00
  1120, 5.544e-19
  1140, 7.896e-19
  1160, 1.238e-18
  1180, 1.756e-18
  1200, 2.420e-18
  1220, 3.573e-18
  1240, 5.789e-18
  1260, 8.634e-18
  1280, 1.172e-17
  1300, 1.602e-17
  1320, 2.104e-17
  1340, 2.686e-17
  1360, 3.450e-17
  1380, 4.490e-17
  1400, 5.859e-17
  1420, 7.541e-17
  1440, 9.688e-17
  1460, 1.251e-16
  1480, 1.580e-16
  1500, 2.032e-16
  1520, 1.239e-15
  1540, 2.165e-15
  1560, 2.229e-15
  1580, 2.869e-15
  1600, 3.687e-15
  1620, 4.458e-15
  1640, 5.108e-15
  1660, 5.524e-15
  1680, 9.050e-14
  1700, 1.367e-13
  1720, 1.721e-13
  1740, 2.322e-13
  1760, 2.213e-13
  1780, 3.072e-13
  1800, 2.740e-13
  1820, 2.009e-13
  1840, 2.163e-13
  1860, 2.966e-13
  1880, 3.381e-13
  1900, 3.896e-13
  1920, 4.616e-13
  1940, 3.825e-13
  1960, 3.853e-13
  1980, 5.795e-13
  2000, 5.941e-13
  2020, 5.203e-13
  2040, 5.800e-13
  2060, 5.632e-13
  2080, 3.683e-12
  2100, 4.586e-12
  2120, 3.885e-12
  2140, 3.563e-12
  2160, 3.322e-12
  2180, 3.589e-12
  2200, 3.589e-12
  2220, 3.511e-12
  2240, 4.268e-12
  2260, 3.211e-12
  2280, 4.268e-12
  2300, 3.965e-12
  2320, 4.042e-12
  2340, 3.286e-12
  2360, 3.738e-12
  2380, 3.850e-12
  2400, 2.945e-12
  2420, 4.531e-12
  2440, 4.268e-12
  2460, 4.457e-12
  2480, 5.174e-12
  2500, 5.019e-12
  2520, 4.343e-12
  2540, 4.376e-12
  2560, 6.758e-12
  2580, 7.853e-12
  2600, 6.647e-12
  2620, 8.868e-12
  2640, 1.382e-11
  2660, 1.571e-11
  2680, 1.590e-11
  2700, 1.685e-11
  2720, 1.432e-11
  2740, 1.110e-11
  2760, 1.367e-11
  2780, 1.234e-11
  2800, 7.248e-12
  2820, 1.933e-11
  2840, 1.710e-11
  2860, 2.193e-11
  2880, 2.318e-11
  2900, 3.476e-11
  2920, 3.229e-11
  2940, 3.319e-11
  2960, 3.444e-11
  2980, 3.289e-11
  3000, 3.083e-11
  3020, 3.573e-11
  3040, 3.991e-11
  3060, 3.918e-11
  3080, 3.991e-11
  3100, 4.335e-11
  3120, 4.624e-11
  3140, 4.335e-11
  3160, 4.540e-11
  3180, 4.754e-11
  3200, 4.932e-11
  3220, 4.624e-11
  3240, 4.978e-11
  3260, 5.715e-11
  3280, 6.209e-11
  3300, 6.325e-11
  3320, 6.096e-11
  3340, 5.985e-11
  3360, 5.663e-11
  3380, 5.611e-11
  3400, 6.096e-11
  3420, 5.985e-11
  3440, 5.875e-11
  3460, 5.715e-11
  3480, 5.611e-11
  3500, 5.875e-11
  3520, 6.209e-11
  3540, 6.267e-11
  3560, 6.442e-11
  3580, 5.559e-11
  3600, 5.930e-11
  3650, 6.746e-11
  3700, 7.064e-11
  3750, 6.871e-11
  3800, 7.397e-11
  3850, 6.871e-11
  3900, 7.262e-11
  3950, 6.325e-11
  4000, 9.751e-11
  4050, 1.030e-10
  4100, 1.012e-10
  4150, 1.050e-10
  4200, 1.030e-10
  4250, 1.021e-10
  4300, 9.751e-11
  4350, 1.021e-10
  4400, 1.079e-10
  4450, 1.130e-10
  4500, 1.183e-10
  4550, 1.151e-10
  4600, 1.162e-10
  4650, 1.140e-10
  4700, 1.151e-10
  4750, 1.140e-10
  4800, 1.172e-10
  4850, 1.069e-10
  4900, 1.069e-10
  4950, 1.140e-10
  5000, 1.079e-10
  5050, 1.099e-10
  5100, 1.079e-10
  5150, 1.050e-10
  5200, 1.040e-10
  5250, 1.040e-10
  5300, 1.050e-10
  5350, 1.050e-10
  5400, 1.040e-10
  5450, 1.040e-10
  5500, 1.040e-10
  5550, 1.030e-10
  5600, 1.012e-10
  5650, 1.021e-10
  5700, 1.002e-10
  5750, 9.932e-11
  5800, 9.932e-11
  5850, 9.841e-11
  5900, 9.661e-11
  5950, 9.573e-11
  6000, 9.573e-11
  6050, 9.485e-11
  6100, 9.485e-11
  6150, 9.226e-11
  6200, 9.312e-11
  6250, 9.058e-11
  6300, 8.811e-11
  6350, 8.893e-11
  6400, 8.811e-11
  6450, 8.650e-11
  6500, 8.492e-11
  6550, 7.889e-11
  6600, 8.110e-11
  6650, 8.337e-11
  6700, 8.337e-11
  6750, 8.261e-11
  6800, 8.185e-11
  6850, 8.185e-11
  6900, 8.110e-11
  6950, 8.036e-11
  7000, 8.036e-11
  7050, 7.962e-11
  7100, 7.817e-11
  7150, 7.745e-11
  7200, 7.674e-11
  7250, 7.604e-11
  7300, 7.534e-11
  7350, 7.465e-11
  7400, 7.329e-11
  7450, 7.262e-11
  7500, 7.195e-11
  7550, 7.129e-11
  7600, 7.064e-11
  7650, 6.999e-11
  7700, 6.935e-11
  7750, 6.871e-11
  7800, 6.808e-11
  7850, 6.746e-11
  7900, 6.684e-11
  7950, 6.562e-11
  8000, 6.502e-11
  8050, 6.383e-11
  8100, 6.325e-11
  8150, 6.267e-11
  8200, 6.209e-11
  8250, 6.152e-11
  8300, 6.096e-11
  8350, 5.985e-11
  8400, 5.930e-11
  8450, 5.875e-11
  8500, 5.663e-11
  8550, 5.408e-11
  8600, 5.663e-11
  8650, 5.358e-11
  8700, 5.559e-11
  8750, 5.508e-11
  8800, 5.408e-11
  8850, 5.358e-11
  8900, 5.309e-11
  8950, 5.261e-11
  9000, 5.165e-11
  9050, 5.117e-11
  9100, 5.070e-11
  9150, 4.978e-11
  9200, 4.932e-11
  9250, 4.887e-11
  9300, 4.842e-11
  9350, 4.798e-11
  9400, 4.710e-11
  9450, 4.667e-11
  9500, 4.624e-11
  9550, 4.624e-11
  9600, 4.582e-11
  9650, 4.540e-11
  9700, 4.498e-11
  9750, 4.457e-11
  9800, 4.416e-11
  9850, 4.376e-11
  9900, 4.335e-11
  9950, 4.296e-11
 10000, 4.256e-11
 12500, 2.296e-11
 22000, 3.530e-12
 34000, 8.650e-13
