wavelength, flux
   240, 0.000e+00
   260, 0.000e+00
   280, 0.000e+00
   300, 0.000e+00
   320, 0.000e+00
   340, 0.000e+00
   360, 0.000e+00
   380, 0.000e+00
   400, 0.000e+00
   420, 0.000e+00
   440, 0.000e+00
   460, 0.000e+00
   480, 0.000e+00
   500, 0.000e+00
   520, 0.000e+00
   540, 0.000e+00
   560, 0.000e+00
   580, 0.000e+00
   600, 0.000e+00
   620, 0.000e+00
   640, 0.000e+00
   660, 0.000e+00
   680, 0.000e+00
   700, 0.000e+00
   720, 0.000e+00
   740, 0.000e+00
   760, 0.000e+00
   780, 0.000e+00
   800, 0.000e+00
   820, 0.000e+00
   840, 0.000e+00
   860, 0.000e+00
   880, 0.000e+00
   900, 0.000e+00
   920, 0.000e+00
   940, 0.000e+00
   960, 0.000e+00
   980, 0.000e+00
  1000, 0.000e+00
  1020, 0.000e+00
  1040, 0.000e+00
  1060, 0.000e+00
  1080, 0.000e+00
  1100, 0.000e+00
  1120, 4.296e-20
  1140, 6.267e-20
  1160, 9.841e-20
  1180, 1.422e-19
  1200, 2.002e-19
  1220, 2.958e-19
  1240, 4.511e-19
  1260, 6.484e-19
  1280, 8.876e-19
  1300, 1.228e-18
  1320, 1.630e-18
  1340, 2.104e-18
  1360, 2.733e-18
  1380, 3.606e-18
  1400, 4.754e-18
  1420, 6.192e-18
  1440, 8.051e-18
  1460, 1.049e-17
  1480, 1.340e-17
  1500, 1.737e-17
  1520, 1.413e-16
  1540, 2.541e-16
  1560, 2.644e-16
  1580, 3.384e-16
  1600, 4.384e-16
  1620, 5.383e-16
  1640, 6.267e-16
  1660, 6.859e-16
  1680, 8.819e-15
  1700, 1.345e-14
  1720, 1.677e-14
  1740, 2.211e-14
  1760, 2.179e-14
  1780, 3.019e-14
  1800, 2.862e-14
  1820, 2.324e-14
  1840, 2.420e-14
  1860, 3.112e-14
  1880, 3.589e-14
  1900, 4.190e-14
  1920, 5.010e-14
  1940, 4.445e-14
  1960, 4.486e-14
  1980, 6.336e-14
  2000, 6.653e-14
  2020, 6.186e-14
  2040, 6.897e-14
  2060, 7.109e-14
  2080, 6.023e-13
  2100, 8.223e-13
  2120, 1.090e-12
  2140, 1.250e-12
  2160, 1.382e-12
  2180, 1.433e-12
  2200, 1.568e-12
  2220, 1.670e-12
  2240, 2.047e-12
  2260, 1.676e-12
  2280, 1.621e-12
  2300, 1.935e-12
  2320, 2.041e-12
  2340, 1.858e-12
  2360, 2.177e-12
  2380, 2.153e-12
  2400, 1.867e-12
  2420, 2.899e-12
  2440, 2.768e-12
  2460, 2.794e-12
  2480, 2.600e-12
  2500, 2.470e-12
  2520, 2.492e-12
  2540, 3.238e-12
  2560, 4.590e-12
  2580, 5.773e-12
  2600, 5.324e-12
  2620, 6.135e-12
  2640, 9.546e-12
  2660, 1.101e-11
  2680, 1.129e-11
  2700, 1.171e-11
  2720, 1.019e-11
  2740, 8.360e-12
  2760, 1.262e-11
  2780, 9.398e-12
  2800, 7.322e-12
  2820, 1.636e-11
  2840, 1.230e-11
  2860, 1.698e-11
  2880, 1.921e-11
  2900, 3.170e-11
  2920, 2.891e-11
  2940, 2.999e-11
  2960, 2.864e-11
  2980, 2.518e-11
  3000, 2.382e-11
  3020, 2.838e-11
  3040, 3.381e-11
  3060, 3.476e-11
  3080, 3.229e-11
  3100, 3.776e-11
  3120, 4.296e-11
  3140, 3.954e-11
  3160, 4.179e-11
  3180, 4.416e-11
  3200, 4.217e-11
  3220, 3.954e-11
  3240, 4.842e-11
  3260, 5.261e-11
  3280, 5.821e-11
  3300, 6.096e-11
  3320, 5.663e-11
  3340, 5.611e-11
  3360, 4.978e-11
  3380, 4.710e-11
  3400, 5.309e-11
  3420, 4.887e-11
  3440, 4.179e-11
  3460, 3.741e-11
  3480, 4.256e-11
  3500, 4.798e-11
  3520, 5.212e-11
  3540, 4.582e-11
  3560, 4.335e-11
  3580, 3.882e-11
  3600, 4.179e-11
  3650, 4.842e-11
  3700, 5.070e-11
  3750, 4.887e-11
  3800, 5.165e-11
  3850, 4.710e-11
  3900, 5.117e-11
  3950, 4.498e-11
  4000, 7.262e-11
  4050, 7.534e-11
  4100, 7.465e-11
  4150, 7.674e-11
  4200, 7.534e-11
  4250, 7.465e-11
  4300, 6.999e-11
  4350, 7.604e-11
  4400, 7.962e-11
  4450, 8.337e-11
  4500, 8.811e-11
  4550, 8.571e-11
  4600, 8.730e-11
  4650, 8.571e-11
  4700, 8.492e-11
  4750, 8.650e-11
  4800, 8.893e-11
  4850, 8.036e-11
  4900, 8.110e-11
  4950, 8.492e-11
  5000, 8.110e-11
  5050, 8.261e-11
  5100, 8.110e-11
  5150, 7.817e-11
  5200, 7.817e-11
  5250, 7.817e-11
  5300, 7.962e-11
  5350, 7.962e-11
  5400, 7.889e-11
  5450, 7.889e-11
  5500, 7.889e-11
  5550, 7.889e-11
  5600, 7.674e-11
  5650, 7.745e-11
  5700, 7.674e-11
  5750, 7.604e-11
  5800, 7.604e-11
  5850, 7.604e-11
  5900, 7.397e-11
  5950, 7.329e-11
  6000, 7.262e-11
  6050, 7.329e-11
  6100, 7.262e-11
  6150, 7.064e-11
  6200, 7.195e-11
  6250, 6.999e-11
  6300, 6.871e-11
  6350, 6.871e-11
  6400, 6.808e-11
  6450, 6.684e-11
  6500, 6.623e-11
  6550, 6.209e-11
  6600, 6.383e-11
  6650, 6.442e-11
  6700, 6.442e-11
  6750, 6.383e-11
  6800, 6.325e-11
  6850, 6.267e-11
  6900, 6.209e-11
  6950, 6.152e-11
  7000, 6.096e-11
  7050, 6.040e-11
  7100, 5.985e-11
  7150, 5.930e-11
  7200, 5.875e-11
  7250, 5.821e-11
  7300, 5.768e-11
  7350, 5.715e-11
  7400, 5.611e-11
  7450, 5.559e-11
  7500, 5.508e-11
  7550, 5.458e-11
  7600, 5.408e-11
  7650, 5.358e-11
  7700, 5.309e-11
  7750, 5.261e-11
  7800, 5.212e-11
  7850, 5.165e-11
  7900, 5.070e-11
  7950, 5.024e-11
  8000, 4.978e-11
  8050, 4.932e-11
  8100, 4.887e-11
  8150, 4.798e-11
  8200, 4.754e-11
  8250, 4.710e-11
  8300, 4.667e-11
  8350, 4.624e-11
  8400, 4.582e-11
  8450, 4.540e-11
  8500, 4.335e-11
  8550, 4.140e-11
  8600, 4.376e-11
  8650, 4.102e-11
  8700, 4.296e-11
  8750, 4.217e-11
  8800, 4.179e-11
  8850, 4.140e-11
  8900, 4.102e-11
  8950, 4.027e-11
  9000, 3.991e-11
  9050, 3.954e-11
  9100, 3.918e-11
  9150, 3.882e-11
  9200, 3.846e-11
  9250, 3.776e-11
  9300, 3.741e-11
  9350, 3.707e-11
  9400, 3.673e-11
  9450, 3.639e-11
  9500, 3.606e-11
  9550, 3.573e-11
  9600, 3.573e-11
  9650, 3.540e-11
  9700, 3.508e-11
  9750, 3.476e-11
  9800, 3.444e-11
  9850, 3.412e-11
  9900, 3.381e-11
  9950, 3.350e-11
 10000, 3.319e-11
 12500, 1.809e-11
 22000, 2.820e-12
 34000, 6.909e-13
