wavelength, flux
   240, 0.000e+00
   260, 0.000e+00
   280, 0.000e+00
   300, 0.000e+00
   320, 0.000e+00
   340, 0.000e+00
   360, 0.000e+00
   380, 0.000e+00
   400, 0.000e+00
   420, 0.000e+00
   440, 0.000e+00
   460, 0.000e+00
   480, 0.000e+00
   500, 0.000e+00
   520, 0.000e+00
   540, 0.000e+00
   560, 0.000e+00
   580, 0.000e+00
   600, 0.000e+00
   620, 0.000e+00
   640, 0.000e+00
   660, 0.000e+00
   680, 0.000e+00
   700, 0.000e+00
   720, 0.000e+00
   740, 0.000e+00
   760, 0.000e+00
   780, 0.000e+00
   800, 0.000e+00
   820, 0.000e+00
   840, 0.000e+00
   860, 0.000e+00
   880, 0.000e+00
   900, 0.000e+00
   920, 0.000e+00
   940, 0.000e+00
   960, 0.000e+00
   980, 0.000e+00
  1000, 0.000e+00
  1020, 0.000e+00
  1040, 0.000e+00
  1060, 0.000e+00
  1080, 0.000e+00
  1100, 0.000e+00
  1120, 2.612e-20
  1140, 3.776e-20
  1160, 5.985e-20
  1180, 8.571e-20
  1200, 1.205e-19
  1220, 1.791e-19
  1240, 2.725e-19
  1260, 3.918e-19
  1280, 5.363e-19
  1300, 7.417e-19
  1320, 9.850e-19
  1340, 1.271e-18
  1360, 1.651e-18
  1380, 2.179e-18
  1400, 2.872e-18
  1420, 3.741e-18
  1440, 4.864e-18
  1460, 6.336e-18
  1480, 8.095e-18
  1500, 1.050e-17
  1520, 8.539e-17
  1540, 1.535e-16
  1560, 1.597e-16
  1580, 2.045e-16
  1600, 2.649e-16
  1620, 3.253e-16
  1640, 3.786e-16
  1660, 4.144e-16
  1680, 5.329e-15
  1700, 8.125e-15
  1720, 1.014e-14
  1740, 1.336e-14
  1760, 1.317e-14
  1780, 1.824e-14
  1800, 1.729e-14
  1820, 1.404e-14
  1840, 1.462e-14
  1860, 1.880e-14
  1880, 2.169e-14
  1900, 2.532e-14
  1920, 3.027e-14
  1940, 2.686e-14
  1960, 2.710e-14
  1980, 3.829e-14
  2000, 4.020e-14
  2020, 3.741e-14
  2040, 4.167e-14
  2060, 4.296e-14
  2080, 3.639e-13
  2100, 4.969e-13
  2120, 6.586e-13
  2140, 7.555e-13
  2160, 8.353e-13
  2180, 8.658e-13
  2200, 9.476e-13
  2220, 1.009e-12
  2240, 1.237e-12
  2260, 1.013e-12
  2280, 9.796e-13
  2300, 1.169e-12
  2320, 1.233e-12
  2340, 1.123e-12
  2360, 1.315e-12
  2380, 1.301e-12
  2400, 1.128e-12
  2420, 1.752e-12
  2440, 1.673e-12
  2460, 1.688e-12
  2480, 1.571e-12
  2500, 1.492e-12
  2520, 1.506e-12
  2540, 1.956e-12
  2560, 2.774e-12
  2580, 3.488e-12
  2600, 3.217e-12
  2620, 3.707e-12
  2640, 5.768e-12
  2660, 6.653e-12
  2680, 6.821e-12
  2700, 7.077e-12
  2720, 6.158e-12
  2740, 5.052e-12
  2760, 7.625e-12
  2780, 5.678e-12
  2800, 4.424e-12
  2820, 9.886e-12
  2840, 7.431e-12
  2860, 1.026e-11
  2880, 1.160e-11
  2900, 1.921e-11
  2920, 1.752e-11
  2940, 1.821e-11
  2960, 1.734e-11
  2980, 1.527e-11
  3000, 1.436e-11
  3020, 1.718e-11
  3040, 2.037e-11
  3060, 2.114e-11
  3080, 1.956e-11
  3100, 2.275e-11
  3120, 2.588e-11
  3140, 2.382e-11
  3160, 2.518e-11
  3180, 2.661e-11
  3200, 2.541e-11
  3220, 2.405e-11
  3240, 2.918e-11
  3260, 3.170e-11
  3280, 3.508e-11
  3300, 3.673e-11
  3320, 3.444e-11
  3340, 3.381e-11
  3360, 2.999e-11
  3380, 2.864e-11
  3400, 3.199e-11
  3420, 2.945e-11
  3440, 2.541e-11
  3460, 2.254e-11
  3480, 2.565e-11
  3500, 2.918e-11
  3520, 3.141e-11
  3540, 2.761e-11
  3560, 2.612e-11
  3580, 2.339e-11
  3600, 2.518e-11
  3650, 3.055e-11
  3700, 3.199e-11
  3750, 3.055e-11
  3800, 3.112e-11
  3850, 2.710e-11
  3900, 3.141e-11
  3950, 2.761e-11
  4000, 4.932e-11
  4050, 4.842e-11
  4100, 4.932e-11
  4150, 4.978e-11
  4200, 4.978e-11
  4250, 4.842e-11
  4300, 4.376e-11
  4350, 5.117e-11
  4400, 5.261e-11
  4450, 5.458e-11
  4500, 5.821e-11
  4550, 5.768e-11
  4600, 5.930e-11
  4650, 5.768e-11
  4700, 5.611e-11
  4750, 5.875e-11
  4800, 6.040e-11
  4850, 5.508e-11
  4900, 5.611e-11
  4950, 5.715e-11
  5000, 5.508e-11
  5050, 5.611e-11
  5100, 5.559e-11
  5150, 5.165e-11
  5200, 5.309e-11
  5250, 5.358e-11
  5300, 5.559e-11
  5350, 5.508e-11
  5400, 5.458e-11
  5450, 5.458e-11
  5500, 5.458e-11
  5550, 5.458e-11
  5600, 5.358e-11
  5650, 5.408e-11
  5700, 5.358e-11
  5750, 5.408e-11
  5800, 5.358e-11
  5850, 5.408e-11
  5900, 5.165e-11
  5950, 5.165e-11
  6000, 5.024e-11
  6050, 5.165e-11
  6100, 5.070e-11
  6150, 4.932e-11
  6200, 5.117e-11
  6250, 4.978e-11
  6300, 4.932e-11
  6350, 4.887e-11
  6400, 4.842e-11
  6450, 4.754e-11
  6500, 4.754e-11
  6550, 4.582e-11
  6600, 4.624e-11
  6650, 4.624e-11
  6700, 4.582e-11
  6750, 4.498e-11
  6800, 4.457e-11
  6850, 4.416e-11
  6900, 4.376e-11
  6950, 4.335e-11
  7000, 4.296e-11
  7050, 4.256e-11
  7100, 4.217e-11
  7150, 4.179e-11
  7200, 4.140e-11
  7250, 4.065e-11
  7300, 4.027e-11
  7350, 3.991e-11
  7400, 3.954e-11
  7450, 3.918e-11
  7500, 3.882e-11
  7550, 3.846e-11
  7600, 3.811e-11
  7650, 3.776e-11
  7700, 3.741e-11
  7750, 3.673e-11
  7800, 3.639e-11
  7850, 3.606e-11
  7900, 3.573e-11
  7950, 3.540e-11
  8000, 3.508e-11
  8050, 3.476e-11
  8100, 3.412e-11
  8150, 3.381e-11
  8200, 3.350e-11
  8250, 3.319e-11
  8300, 3.289e-11
  8350, 3.259e-11
  8400, 3.229e-11
  8450, 3.199e-11
  8500, 3.055e-11
  8550, 2.918e-11
  8600, 3.083e-11
  8650, 2.918e-11
  8700, 3.027e-11
  8750, 2.999e-11
  8800, 2.972e-11
  8850, 2.945e-11
  8900, 2.918e-11
  8950, 2.864e-11
  9000, 2.838e-11
  9050, 2.812e-11
  9100, 2.786e-11
  9150, 2.761e-11
  9200, 2.735e-11
  9250, 2.710e-11
  9300, 2.686e-11
  9350, 2.686e-11
  9400, 2.661e-11
  9450, 2.637e-11
  9500, 2.612e-11
  9550, 2.588e-11
  9600, 2.565e-11
  9650, 2.541e-11
  9700, 2.518e-11
  9750, 2.495e-11
  9800, 2.472e-11
  9850, 2.449e-11
  9900, 2.427e-11
  9950, 2.427e-11
 10000, 2.405e-11
 12500, 1.331e-11
 22000, 2.108e-12
 34000, 5.165e-13
