wavelength, flux
   240, 0.000e+00
   260, 2.177e-16
   280, 4.351e-16
   300, 6.526e-16
   320, 8.705e-16
   340, 1.088e-15
   360, 1.306e-15
   380, 1.523e-15
   400, 1.741e-15
   420, 1.958e-15
   440, 2.176e-15
   460, 2.394e-15
   480, 2.611e-15
   500, 2.829e-15
   520, 3.046e-15
   540, 3.264e-15
   560, 3.482e-15
   580, 3.699e-15
   600, 3.917e-15
   620, 4.135e-15
   640, 4.352e-15
   660, 4.570e-15
   680, 4.788e-15
   700, 5.005e-15
   720, 5.222e-15
   740, 5.438e-15
   760, 5.658e-15
   780, 5.875e-15
   800, 6.096e-15
   820, 6.313e-15
   840, 6.526e-15
   860, 6.746e-15
   880, 6.960e-15
   900, 7.182e-15
   920, 7.397e-15
   940, 7.618e-15
   960, 7.831e-15
   980, 8.051e-15
  1000, 8.269e-15
  1020, 8.485e-15
  1040, 8.706e-15
  1060, 8.925e-15
  1080, 9.142e-15
  1100, 9.355e-15
  1120, 9.573e-15
  1140, 9.796e-15
  1160, 1.001e-14
  1180, 1.023e-14
  1200, 1.045e-14
  1220, 1.066e-14
  1240, 1.088e-14
  1260, 1.110e-14
  1280, 1.132e-14
  1300, 1.153e-14
  1320, 1.176e-14
  1340, 1.197e-14
  1360, 1.219e-14
  1380, 1.240e-14
  1400, 1.262e-14
  1420, 1.284e-14
  1440, 1.306e-14
  1460, 1.327e-14
  1480, 1.350e-14
  1500, 1.371e-14
  1520, 1.393e-14
  1540, 1.415e-14
  1560, 1.436e-14
  1580, 1.458e-14
  1600, 1.480e-14
  1620, 1.502e-14
  1640, 1.523e-14
  1660, 1.545e-14
  1680, 1.567e-14
  1700, 1.589e-14
  1720, 1.611e-14
  1740, 1.632e-14
  1760, 1.654e-14
  1780, 1.676e-14
  1800, 1.698e-14
  1820, 1.720e-14
  1840, 1.740e-14
  1860, 1.763e-14
  1880, 1.784e-14
  1900, 1.806e-14
  1920, 1.827e-14
  1940, 1.849e-14
  1960, 1.872e-14
  1980, 1.892e-14
  2000, 1.915e-14
  2020, 1.937e-14
  2040, 1.958e-14
  2060, 1.980e-14
  2080, 2.002e-14
  2100, 2.733e-14
  2120, 3.619e-14
  2140, 4.152e-14
  2160, 4.594e-14
  2180, 4.762e-14
  2200, 5.207e-14
  2220, 5.544e-14
  2240, 6.802e-14
  2260, 5.565e-14
  2280, 5.388e-14
  2300, 6.424e-14
  2320, 6.783e-14
  2340, 6.175e-14
  2360, 7.228e-14
  2380, 7.155e-14
  2400, 6.203e-14
  2420, 9.635e-14
  2440, 9.192e-14
  2460, 9.277e-14
  2480, 8.642e-14
  2500, 8.208e-14
  2520, 8.276e-14
  2540, 1.076e-13
  2560, 1.526e-13
  2580, 1.917e-13
  2600, 1.768e-13
  2620, 2.039e-13
  2640, 3.173e-13
  2660, 3.656e-13
  2680, 3.752e-13
  2700, 3.893e-13
  2720, 3.387e-13
  2740, 2.779e-13
  2760, 4.190e-13
  2780, 3.123e-13
  2800, 2.431e-13
  2820, 5.433e-13
  2840, 4.087e-13
  2860, 5.642e-13
  2880, 6.377e-13
  2900, 1.063e-12
  2920, 1.126e-12
  2940, 1.079e-12
  2960, 1.015e-12
  2980, 9.058e-13
  3000, 8.666e-13
  3020, 9.914e-13
  3040, 1.205e-12
  3060, 1.314e-12
  3080, 1.433e-12
  3100, 1.590e-12
  3120, 1.748e-12
  3140, 1.732e-12
  3160, 1.811e-12
  3180, 2.024e-12
  3200, 1.937e-12
  3220, 1.756e-12
  3240, 2.261e-12
  3260, 2.851e-12
  3280, 2.986e-12
  3300, 3.072e-12
  3320, 3.008e-12
  3340, 2.756e-12
  3360, 2.409e-12
  3380, 2.646e-12
  3400, 3.047e-12
  3420, 3.055e-12
  3440, 2.733e-12
  3460, 2.867e-12
  3480, 2.937e-12
  3500, 3.149e-12
  3520, 3.041e-12
  3540, 3.356e-12
  3560, 2.867e-12
  3580, 2.071e-12
  3600, 2.878e-12
  3650, 3.811e-12
  3700, 4.511e-12
  3750, 3.109e-12
  3800, 3.656e-12
  3850, 2.723e-12
  3900, 3.811e-12
  3950, 3.485e-12
  4000, 7.465e-12
  4050, 7.309e-12
  4100, 8.555e-12
  4150, 8.868e-12
  4200, 8.399e-12
  4250, 8.088e-12
  4300, 8.163e-12
  4350, 1.081e-11
  4400, 1.019e-11
  4450, 1.182e-11
  4500, 1.368e-11
  4550, 1.337e-11
  4600, 1.430e-11
  4650, 1.446e-11
  4700, 1.446e-11
  4750, 1.430e-11
  4800, 1.469e-11
  4850, 1.416e-11
  4900, 1.408e-11
  4950, 1.430e-11
  5000, 1.361e-11
  5050, 1.353e-11
  5100, 1.291e-11
  5150, 1.182e-11
  5200, 1.205e-11
  5250, 1.384e-11
  5300, 1.500e-11
  5350, 1.516e-11
  5400, 1.477e-11
  5450, 1.524e-11
  5500, 1.555e-11
  5550, 1.586e-11
  5600, 1.524e-11
  5650, 1.571e-11
  5700, 1.547e-11
  5750, 1.617e-11
  5800, 1.626e-11
  5850, 1.664e-11
  5900, 1.516e-11
  5950, 1.617e-11
  6000, 1.602e-11
  6050, 1.648e-11
  6100, 1.602e-11
  6150, 1.540e-11
  6200, 1.609e-11
  6250, 1.540e-11
  6300, 1.617e-11
  6350, 1.617e-11
  6400, 1.571e-11
  6450, 1.509e-11
  6500, 1.555e-11
  6550, 1.595e-11
  6600, 1.586e-11
  6650, 1.578e-11
  6700, 1.571e-11
  6750, 1.555e-11
  6800, 1.547e-11
  6850, 1.537e-11
  6900, 1.527e-11
  6950, 1.516e-11
  7000, 1.507e-11
  7050, 1.498e-11
  7100, 1.488e-11
  7150, 1.481e-11
  7200, 1.472e-11
  7250, 1.462e-11
  7300, 1.454e-11
  7350, 1.445e-11
  7400, 1.437e-11
  7450, 1.428e-11
  7500, 1.420e-11
  7550, 1.411e-11
  7600, 1.402e-11
  7650, 1.391e-11
  7700, 1.382e-11
  7750, 1.374e-11
  7800, 1.363e-11
  7850, 1.355e-11
  7900, 1.342e-11
  7950, 1.321e-11
  8000, 1.307e-11
  8050, 1.283e-11
  8100, 1.268e-11
  8150, 1.260e-11
  8200, 1.260e-11
  8250, 1.260e-11
  8300, 1.251e-11
  8350, 1.251e-11
  8400, 1.245e-11
  8450, 1.237e-11
  8500, 1.190e-11
  8550, 1.135e-11
  8600, 1.205e-11
  8650, 1.135e-11
  8700, 1.182e-11
  8750, 1.174e-11
  8800, 1.167e-11
  8850, 1.158e-11
  8900, 1.151e-11
  8950, 1.135e-11
  9000, 1.120e-11
  9050, 1.104e-11
  9100, 1.065e-11
  9150, 1.050e-11
  9200, 1.034e-11
  9250, 1.027e-11
  9300, 1.027e-11
  9350, 1.042e-11
  9400, 1.042e-11
  9450, 1.034e-11
  9500, 1.027e-11
  9550, 1.011e-11
  9600, 9.950e-12
  9650, 9.796e-12
  9700, 9.643e-12
  9750, 9.564e-12
  9800, 9.564e-12
  9850, 9.485e-12
  9900, 9.407e-12
  9950, 9.329e-12
 10000, 9.252e-12
 12500, 5.448e-12
 22000, 1.066e-12
 34000, 2.405e-13
