wavelength, flux
   240, 0.000e+00
   260, 1.191e-17
   280, 2.380e-17
   300, 3.570e-17
   320, 4.762e-17
   340, 5.952e-17
   360, 7.142e-17
   380, 8.330e-17
   400, 9.520e-17
   420, 1.071e-16
   440, 1.191e-16
   460, 1.309e-16
   480, 1.429e-16
   500, 1.547e-16
   520, 1.667e-16
   540, 1.786e-16
   560, 1.905e-16
   580, 2.024e-16
   600, 2.143e-16
   620, 2.261e-16
   640, 2.380e-16
   660, 2.499e-16
   680, 2.620e-16
   700, 2.738e-16
   720, 2.856e-16
   740, 2.975e-16
   760, 3.095e-16
   780, 3.214e-16
   800, 3.331e-16
   820, 3.453e-16
   840, 3.570e-16
   860, 3.690e-16
   880, 3.807e-16
   900, 3.929e-16
   920, 4.046e-16
   940, 4.167e-16
   960, 4.284e-16
   980, 4.404e-16
  1000, 4.523e-16
  1020, 4.641e-16
  1040, 4.762e-16
  1060, 4.882e-16
  1080, 5.001e-16
  1100, 5.117e-16
  1120, 5.236e-16
  1140, 5.358e-16
  1160, 5.473e-16
  1180, 5.595e-16
  1200, 5.715e-16
  1220, 5.832e-16
  1240, 5.952e-16
  1260, 6.073e-16
  1280, 6.192e-16
  1300, 6.307e-16
  1320, 6.430e-16
  1340, 6.550e-16
  1360, 6.665e-16
  1380, 6.783e-16
  1400, 6.903e-16
  1420, 7.025e-16
  1440, 7.142e-16
  1460, 7.262e-16
  1480, 7.383e-16
  1500, 7.499e-16
  1520, 7.618e-16
  1540, 7.738e-16
  1560, 7.853e-16
  1580, 7.975e-16
  1600, 8.094e-16
  1620, 8.213e-16
  1640, 8.332e-16
  1660, 8.451e-16
  1680, 8.570e-16
  1700, 8.689e-16
  1720, 8.809e-16
  1740, 8.927e-16
  1760, 9.046e-16
  1780, 9.165e-16
  1800, 9.284e-16
  1820, 9.404e-16
  1840, 9.522e-16
  1860, 9.642e-16
  1880, 9.760e-16
  1900, 9.880e-16
  1920, 9.999e-16
  1940, 1.012e-15
  1960, 1.024e-15
  1980, 1.036e-15
  2000, 1.047e-15
  2020, 1.059e-15
  2040, 1.071e-15
  2060, 1.083e-15
  2080, 1.095e-15
  2100, 1.494e-15
  2120, 1.980e-15
  2140, 2.271e-15
  2160, 2.512e-15
  2180, 2.604e-15
  2200, 2.850e-15
  2220, 3.034e-15
  2240, 3.720e-15
  2260, 3.045e-15
  2280, 2.948e-15
  2300, 3.515e-15
  2320, 3.709e-15
  2340, 3.377e-15
  2360, 3.956e-15
  2380, 3.914e-15
  2400, 3.393e-15
  2420, 5.270e-15
  2440, 5.028e-15
  2460, 5.075e-15
  2480, 4.728e-15
  2500, 4.488e-15
  2520, 4.528e-15
  2540, 5.886e-15
  2560, 8.345e-15
  2580, 1.049e-14
  2600, 9.670e-15
  2620, 1.115e-14
  2640, 1.736e-14
  2660, 2.000e-14
  2680, 2.052e-14
  2700, 2.129e-14
  2720, 1.853e-14
  2740, 1.520e-14
  2760, 2.292e-14
  2780, 1.709e-14
  2800, 1.330e-14
  2820, 2.972e-14
  2840, 2.236e-14
  2860, 3.086e-14
  2880, 3.488e-14
  2900, 5.816e-14
  2920, 6.158e-14
  2940, 5.902e-14
  2960, 5.554e-14
  2980, 4.955e-14
  3000, 4.741e-14
  3020, 5.423e-14
  3040, 6.592e-14
  3060, 7.188e-14
  3080, 7.838e-14
  3100, 8.698e-14
  3120, 9.564e-14
  3140, 9.476e-14
  3160, 9.904e-14
  3180, 1.107e-13
  3200, 1.059e-13
  3220, 9.608e-14
  3240, 1.237e-13
  3260, 1.560e-13
  3280, 1.633e-13
  3300, 1.680e-13
  3320, 1.645e-13
  3340, 1.507e-13
  3360, 1.318e-13
  3380, 1.448e-13
  3400, 1.667e-13
  3420, 1.671e-13
  3440, 1.495e-13
  3460, 1.568e-13
  3480, 1.606e-13
  3500, 1.723e-13
  3520, 1.664e-13
  3540, 1.836e-13
  3560, 1.568e-13
  3580, 1.133e-13
  3600, 1.701e-13
  3650, 2.127e-13
  3700, 2.339e-13
  3750, 1.914e-13
  3800, 2.553e-13
  3850, 1.914e-13
  3900, 2.766e-13
  3950, 2.339e-13
  4000, 4.042e-13
  4050, 4.680e-13
  4100, 5.319e-13
  4150, 5.957e-13
  4200, 5.742e-13
  4250, 4.891e-13
  4300, 5.957e-13
  4350, 8.291e-13
  4400, 8.508e-13
  4450, 9.787e-13
  4500, 1.233e-12
  4550, 1.340e-12
  4600, 1.468e-12
  4650, 1.488e-12
  4700, 1.510e-12
  4750, 1.361e-12
  4800, 1.297e-12
  4850, 1.340e-12
  4900, 1.446e-12
  4950, 1.488e-12
  5000, 1.297e-12
  5050, 1.255e-12
  5100, 1.233e-12
  5150, 1.233e-12
  5200, 1.297e-12
  5250, 1.617e-12
  5300, 1.723e-12
  5350, 1.892e-12
  5400, 2.020e-12
  5450, 2.020e-12
  5500, 2.127e-12
  5550, 2.275e-12
  5600, 2.149e-12
  5650, 2.296e-12
  5700, 2.361e-12
  5750, 2.467e-12
  5800, 2.532e-12
  5850, 2.445e-12
  5900, 2.064e-12
  5950, 2.382e-12
  6000, 2.509e-12
  6050, 2.658e-12
  6100, 2.637e-12
  6150, 2.425e-12
  6200, 2.318e-12
  6250, 2.211e-12
  6300, 2.467e-12
  6350, 2.637e-12
  6400, 2.553e-12
  6450, 2.723e-12
  6500, 2.915e-12
  6550, 3.064e-12
  6600, 2.999e-12
  6650, 2.872e-12
  6700, 2.766e-12
  6750, 2.637e-12
  6800, 2.553e-12
  6850, 2.637e-12
  6900, 2.766e-12
  6950, 2.872e-12
  7000, 2.934e-12
  7050, 2.894e-12
  7100, 2.807e-12
  7150, 2.723e-12
  7200, 2.786e-12
  7250, 2.915e-12
  7300, 3.041e-12
  7350, 3.147e-12
  7400, 3.211e-12
  7450, 3.232e-12
  7500, 3.211e-12
  7550, 3.190e-12
  7600, 3.170e-12
  7650, 3.147e-12
  7700, 3.126e-12
  7750, 3.106e-12
  7800, 3.106e-12
  7850, 3.126e-12
  7900, 3.147e-12
  7950, 3.190e-12
  8000, 3.211e-12
  8050, 3.190e-12
  8100, 3.126e-12
  8150, 3.064e-12
  8200, 3.019e-12
  8250, 3.083e-12
  8300, 3.170e-12
  8350, 3.253e-12
  8400, 3.277e-12
  8450, 3.277e-12
  8500, 3.170e-12
  8550, 3.041e-12
  8600, 3.253e-12
  8650, 3.083e-12
  8700, 3.211e-12
  8750, 3.147e-12
  8800, 3.106e-12
  8850, 3.083e-12
  8900, 3.083e-12
  8950, 3.083e-12
  9000, 3.083e-12
  9050, 3.083e-12
  9100, 3.083e-12
  9150, 3.083e-12
  9200, 3.083e-12
  9250, 3.083e-12
  9300, 3.083e-12
  9350, 3.083e-12
  9400, 3.083e-12
  9450, 3.064e-12
  9500, 3.064e-12
  9550, 3.019e-12
  9600, 2.999e-12
  9650, 2.955e-12
  9700, 2.934e-12
  9750, 2.934e-12
  9800, 2.934e-12
  9850, 2.934e-12
  9900, 2.934e-12
  9950, 2.915e-12
 10000, 2.894e-12
 12500, 2.052e-12
 22000, 5.344e-13
 34000, 1.309e-13
