wavelength, flux
   240, 0.000e+00
   260, 0.000e+00
   280, 0.000e+00
   300, 0.000e+00
   320, 0.000e+00
   340, 0.000e+00
   360, 0.000e+00
   380, 0.000e+00
   400, 0.000e+00
   420, 0.000e+00
   440, 0.000e+00
   460, 0.000e+00
   480, 0.000e+00
   500, 0.000e+00
   520, 0.000e+00
   540, 0.000e+00
   560, 0.000e+00
   580, 0.000e+00
   600, 0.000e+00
   620, 0.000e+00
   640, 0.000e+00
   660, 0.000e+00
   680, 0.000e+00
   700, 0.000e+00
   720, 0.000e+00
   740, 0.000e+00
   760, 0.000e+00
   780, 0.000e+00
   800, 0.000e+00
   820, 0.000e+00
   840, 0.000e+00
   860, 0.000e+00
   880, 0.000e+00
   900, 0.000e+00
   920, 0.000e+00
   940, 0.000e+00
   960, 0.000e+00
   980, 0.000e+00
  1000, 0.000e+00
  1020, 0.000e+00
  1040, 0.000e+00
  1060, 0.000e+00
  1080, 0.000e+00
  1100, 0.000e+00
  1120, 2.786e-06
  1140, 3.170e-06
  1160, 3.811e-06
  1180, 3.229e-06
  1200, 1.560e-06
  1220, 5.070e-07
  1240, 3.055e-06
  1260, 3.811e-06
  1280, 4.498e-06
  1300, 3.741e-06
  1320, 5.508e-06
  1340, 5.261e-06
  1360, 5.930e-06
  1380, 5.408e-06
  1400, 5.985e-06
  1420, 6.096e-06
  1440, 6.808e-06
  1460, 7.889e-06
  1480, 6.999e-06
  1500, 7.195e-06
  1520, 7.465e-06
  1540, 6.808e-06
  1560, 7.129e-06
  1580, 6.562e-06
  1600, 7.129e-06
  1620, 5.985e-06
  1640, 5.930e-06
  1660, 6.096e-06
  1680, 6.267e-06
  1700, 6.267e-06
  1720, 5.458e-06
  1740, 5.821e-06
  1760, 6.040e-06
  1780, 6.152e-06
  1800, 6.562e-06
  1820, 6.383e-06
  1840, 5.559e-06
  1860, 5.930e-06
  1880, 5.408e-06
  1900, 5.559e-06
  1920, 5.261e-06
  1940, 5.408e-06
  1960, 5.875e-06
  1980, 5.212e-06
  2000, 5.309e-06
  2020, 5.408e-06
  2040, 5.261e-06
  2060, 5.165e-06
  2080, 5.070e-06
  2100, 5.117e-06
  2120, 5.212e-06
  2140, 5.165e-06
  2160, 5.165e-06
  2180, 5.070e-06
  2200, 5.070e-06
  2220, 4.754e-06
  2240, 4.798e-06
  2260, 4.498e-06
  2280, 4.842e-06
  2300, 4.798e-06
  2320, 4.710e-06
  2340, 4.256e-06
  2360, 4.256e-06
  2380, 4.140e-06
  2400, 4.179e-06
  2420, 4.296e-06
  2440, 4.416e-06
  2460, 4.416e-06
  2480, 4.376e-06
  2500, 4.498e-06
  2520, 4.296e-06
  2540, 4.027e-06
  2560, 4.217e-06
  2580, 4.498e-06
  2600, 4.457e-06
  2620, 4.416e-06
  2640, 4.667e-06
  2660, 4.978e-06
  2680, 4.887e-06
  2700, 4.842e-06
  2720, 4.667e-06
  2740, 4.498e-06
  2760, 4.376e-06
  2780, 4.667e-06
  2800, 4.217e-06
  2820, 4.842e-06
  2840, 4.498e-06
  2860, 4.457e-06
  2880, 4.540e-06
  2900, 4.667e-06
  2920, 4.624e-06
  2940, 4.376e-06
  2960, 4.416e-06
  2980, 4.416e-06
  3000, 4.498e-06
  3020, 4.540e-06
  3040, 4.540e-06
  3060, 4.498e-06
  3080, 4.498e-06
  3100, 4.498e-06
  3120, 4.457e-06
  3140, 4.457e-06
  3160, 4.416e-06
  3180, 4.335e-06
  3200, 4.335e-06
  3220, 4.335e-06
  3240, 4.296e-06
  3260, 4.296e-06
  3280, 4.256e-06
  3300, 4.296e-06
  3320, 4.256e-06
  3340, 4.217e-06
  3360, 4.102e-06
  3380, 4.065e-06
  3400, 3.991e-06
  3420, 3.954e-06
  3440, 3.918e-06
  3460, 3.882e-06
  3480, 3.811e-06
  3500, 3.811e-06
  3520, 3.741e-06
  3540, 3.673e-06
  3560, 3.639e-06
  3580, 3.573e-06
  3600, 3.606e-06
  3650, 3.573e-06
  3700, 4.217e-06
  3750, 5.024e-06
  3800, 5.408e-06
  3850, 5.309e-06
  3900, 5.212e-06
  3950, 4.932e-06
  4000, 5.117e-06
  4050, 4.978e-06
  4100, 4.624e-06
  4150, 4.667e-06
  4200, 4.540e-06
  4250, 4.457e-06
  4300, 4.296e-06
  4350, 4.027e-06
  4400, 4.102e-06
  4450, 3.991e-06
  4500, 3.846e-06
  4550, 3.741e-06
  4600, 3.639e-06
  4650, 3.540e-06
  4700, 3.444e-06
  4750, 3.350e-06
  4800, 3.259e-06
  4850, 3.055e-06
  4900, 3.083e-06
  4950, 3.027e-06
  5000, 2.945e-06
  5050, 2.864e-06
  5100, 2.812e-06
  5150, 2.735e-06
  5200, 2.686e-06
  5250, 2.612e-06
  5300, 2.541e-06
  5350, 2.495e-06
  5400, 2.427e-06
  5450, 2.361e-06
  5500, 2.318e-06
  5550, 2.275e-06
  5600, 2.213e-06
  5650, 2.153e-06
  5700, 2.094e-06
  5750, 2.037e-06
  5800, 1.982e-06
  5850, 1.945e-06
  5900, 1.892e-06
  5950, 1.858e-06
  6000, 1.807e-06
  6050, 1.774e-06
  6100, 1.742e-06
  6150, 1.694e-06
  6200, 1.664e-06
  6250, 1.618e-06
  6300, 1.589e-06
  6350, 1.560e-06
  6400, 1.517e-06
  6450, 1.489e-06
  6500, 1.449e-06
  6550, 1.384e-06
  6600, 1.396e-06
  6650, 1.358e-06
  6700, 1.334e-06
  6750, 1.309e-06
  6800, 1.285e-06
  6850, 1.250e-06
  6900, 1.228e-06
  6950, 1.205e-06
  7000, 1.183e-06
  7050, 1.162e-06
  7100, 1.140e-06
  7150, 1.120e-06
  7200, 1.089e-06
  7250, 1.069e-06
  7300, 1.050e-06
  7350, 1.030e-06
  7400, 1.012e-06
  7450, 9.932e-07
  7500, 9.751e-07
  7550, 9.573e-07
  7600, 9.398e-07
  7650, 9.226e-07
  7700, 8.975e-07
  7750, 8.730e-07
  7800, 8.492e-07
  7850, 8.492e-07
  7900, 8.337e-07
  7950, 8.185e-07
  8000, 8.036e-07
  8050, 7.962e-07
  8100, 7.817e-07
  8150, 7.674e-07
  8200, 7.534e-07
  8250, 7.465e-07
  8300, 7.465e-07
  8350, 7.465e-07
  8400, 7.465e-07
  8450, 7.397e-07
  8500, 7.465e-07
  8550, 7.195e-07
  8600, 7.195e-07
  8650, 6.999e-07
  8700, 7.329e-07
  8750, 6.746e-07
  8800, 7.064e-07
  8850, 6.502e-07
  8900, 6.808e-07
  8950, 6.684e-07
  9000, 6.096e-07
  9050, 6.442e-07
  9100, 6.325e-07
  9150, 6.209e-07
  9200, 6.096e-07
  9250, 5.508e-07
  9300, 5.875e-07
  9350, 5.821e-07
  9400, 5.715e-07
  9450, 5.611e-07
  9500, 5.508e-07
  9550, 4.932e-07
  9600, 5.309e-07
  9650, 5.212e-07
  9700, 5.117e-07
  9750, 5.024e-07
  9800, 4.932e-07
  9850, 4.887e-07
  9900, 4.754e-07
  9950, 4.710e-07
 10000, 4.624e-07
 12500, 2.000e-07
 22000, 2.449e-08
 34000, 5.309e-09
