wavelength, flux
   240, 0.000e+00
   260, 0.000e+00
   280, 0.000e+00
   300, 0.000e+00
   320, 0.000e+00
   340, 0.000e+00
   360, 0.000e+00
   380, 0.000e+00
   400, 0.000e+00
   420, 0.000e+00
   440, 0.000e+00
   460, 0.000e+00
   480, 0.000e+00
   500, 0.000e+00
   520, 0.000e+00
   540, 0.000e+00
   560, 0.000e+00
   580, 0.000e+00
   600, 0.000e+00
   620, 0.000e+00
   640, 0.000e+00
   660, 0.000e+00
   680, 0.000e+00
   700, 0.000e+00
   720, 0.000e+00
   740, 0.000e+00
   760, 0.000e+00
   780, 0.000e+00
   800, 0.000e+00
   820, 0.000e+00
   840, 0.000e+00
   860, 0.000e+00
   880, 0.000e+00
   900, 0.000e+00
   920, 0.000e+00
   940, 0.000e+00
   960, 0.000e+00
   980, 0.000e+00
  1000, 0.000e+00
  1020, 0.000e+00
  1040, 0.000e+00
  1060, 0.000e+00
  1080, 0.000e+00
  1100, 0.000e+00
  1120, 1.064e-12
  1140, 1.372e-12
  1160, 2.039e-12
  1180, 2.569e-12
  1200, 3.498e-12
  1220, 4.978e-12
  1240, 7.962e-11
  1260, 3.476e-10
  1280, 9.312e-10
  1300, 1.021e-09
  1320, 1.151e-09
  1340, 1.531e-09
  1360, 1.462e-09
  1380, 1.633e-09
  1400, 1.758e-09
  1420, 1.945e-09
  1440, 3.141e-09
  1460, 5.559e-09
  1480, 5.611e-09
  1500, 6.442e-09
  1520, 1.664e-08
  1540, 2.275e-08
  1560, 1.742e-08
  1580, 2.735e-08
  1600, 3.350e-08
  1620, 3.259e-08
  1640, 3.350e-08
  1660, 3.606e-08
  1680, 4.296e-08
  1700, 8.811e-08
  1720, 1.489e-07
  1740, 1.892e-07
  1760, 2.361e-07
  1780, 2.612e-07
  1800, 3.319e-07
  1820, 3.289e-07
  1840, 2.735e-07
  1860, 2.275e-07
  1880, 2.661e-07
  1900, 2.945e-07
  1920, 2.812e-07
  1940, 2.735e-07
  1960, 3.259e-07
  1980, 3.412e-07
  2000, 3.112e-07
  2020, 2.838e-07
  2040, 3.229e-07
  2060, 3.508e-07
  2080, 3.573e-07
  2100, 3.476e-07
  2120, 3.141e-07
  2140, 2.945e-07
  2160, 2.972e-07
  2180, 3.083e-07
  2200, 3.319e-07
  2220, 3.027e-07
  2240, 2.999e-07
  2260, 2.761e-07
  2280, 2.945e-07
  2300, 3.259e-07
  2320, 3.027e-07
  2340, 2.296e-07
  2360, 2.193e-07
  2380, 2.094e-07
  2400, 1.824e-07
  2420, 2.213e-07
  2440, 3.027e-07
  2460, 3.170e-07
  2480, 2.999e-07
  2500, 3.508e-07
  2520, 3.141e-07
  2540, 2.637e-07
  2560, 2.999e-07
  2580, 3.444e-07
  2600, 2.972e-07
  2620, 2.541e-07
  2640, 3.673e-07
  2660, 5.024e-07
  2680, 4.540e-07
  2700, 4.335e-07
  2720, 4.335e-07
  2740, 4.217e-07
  2760, 3.381e-07
  2780, 4.102e-07
  2800, 2.234e-07
  2820, 4.027e-07
  2840, 5.024e-07
  2860, 4.710e-07
  2880, 4.978e-07
  2900, 5.309e-07
  2920, 6.040e-07
  2940, 6.096e-07
  2960, 6.383e-07
  2980, 6.502e-07
  3000, 7.129e-07
  3020, 7.465e-07
  3040, 7.397e-07
  3060, 7.329e-07
  3080, 7.745e-07
  3100, 7.817e-07
  3120, 7.674e-07
  3140, 8.036e-07
  3160, 8.261e-07
  3180, 8.185e-07
  3200, 8.415e-07
  3220, 8.261e-07
  3240, 8.571e-07
  3260, 9.398e-07
  3280, 9.751e-07
  3300, 1.021e-06
  3320, 1.069e-06
  3340, 1.050e-06
  3360, 1.030e-06
  3380, 1.050e-06
  3400, 1.069e-06
  3420, 1.109e-06
  3440, 1.151e-06
  3460, 1.140e-06
  3480, 1.109e-06
  3500, 1.120e-06
  3520, 1.151e-06
  3540, 1.172e-06
  3560, 1.151e-06
  3580, 1.140e-06
  3600, 1.183e-06
  3650, 1.285e-06
  3700, 1.807e-06
  3750, 2.541e-06
  3800, 3.639e-06
  3850, 3.918e-06
  3900, 3.741e-06
  3950, 3.083e-06
  4000, 4.376e-06
  4050, 4.416e-06
  4100, 3.741e-06
  4150, 4.140e-06
  4200, 4.065e-06
  4250, 4.027e-06
  4300, 3.741e-06
  4350, 3.412e-06
  4400, 3.673e-06
  4450, 3.707e-06
  4500, 3.776e-06
  4550, 3.606e-06
  4600, 3.639e-06
  4650, 3.573e-06
  4700, 3.573e-06
  4750, 3.508e-06
  4800, 3.444e-06
  4850, 2.864e-06
  4900, 3.229e-06
  4950, 3.259e-06
  5000, 3.055e-06
  5050, 3.083e-06
  5100, 3.027e-06
  5150, 2.891e-06
  5200, 2.786e-06
  5250, 2.710e-06
  5300, 2.710e-06
  5350, 2.686e-06
  5400, 2.637e-06
  5450, 2.637e-06
  5500, 2.588e-06
  5550, 2.541e-06
  5600, 2.472e-06
  5650, 2.427e-06
  5700, 2.382e-06
  5750, 2.339e-06
  5800, 2.318e-06
  5850, 2.275e-06
  5900, 2.193e-06
  5950, 2.173e-06
  6000, 2.094e-06
  6050, 2.056e-06
  6100, 2.037e-06
  6150, 1.945e-06
  6200, 1.982e-06
  6250, 1.945e-06
  6300, 1.910e-06
  6350, 1.858e-06
  6400, 1.824e-06
  6450, 1.791e-06
  6500, 1.758e-06
  6550, 1.589e-06
  6600, 1.664e-06
  6650, 1.664e-06
  6700, 1.633e-06
  6750, 1.603e-06
  6800, 1.574e-06
  6850, 1.545e-06
  6900, 1.531e-06
  6950, 1.503e-06
  7000, 1.476e-06
  7050, 1.449e-06
  7100, 1.422e-06
  7150, 1.396e-06
  7200, 1.371e-06
  7250, 1.358e-06
  7300, 1.334e-06
  7350, 1.309e-06
  7400, 1.297e-06
  7450, 1.274e-06
  7500, 1.250e-06
  7550, 1.228e-06
  7600, 1.205e-06
  7650, 1.194e-06
  7700, 1.172e-06
  7750, 1.130e-06
  7800, 1.109e-06
  7850, 1.120e-06
  7900, 1.099e-06
  7950, 1.079e-06
  8000, 1.059e-06
  8050, 1.040e-06
  8100, 1.030e-06
  8150, 1.012e-06
  8200, 1.002e-06
  8250, 9.841e-07
  8300, 9.841e-07
  8350, 9.841e-07
  8400, 9.751e-07
  8450, 9.751e-07
  8500, 9.841e-07
  8550, 9.142e-07
  8600, 9.751e-07
  8650, 8.975e-07
  8700, 1.002e-06
  8750, 9.312e-07
  8800, 9.841e-07
  8850, 8.975e-07
  8900, 9.573e-07
  8950, 9.398e-07
  9000, 8.571e-07
  9050, 9.142e-07
  9100, 9.058e-07
  9150, 8.893e-07
  9200, 8.730e-07
  9250, 7.889e-07
  9300, 8.492e-07
  9350, 8.415e-07
  9400, 8.261e-07
  9450, 8.110e-07
  9500, 8.036e-07
  9550, 7.195e-07
  9600, 7.817e-07
  9650, 7.674e-07
  9700, 7.534e-07
  9750, 7.397e-07
  9800, 7.329e-07
  9850, 7.195e-07
  9900, 7.064e-07
  9950, 6.999e-07
 10000, 6.871e-07
 12500, 3.381e-07
 22000, 4.582e-08
 34000, 9.932e-09
