wavelength, flux
   240, 0.000e+00
   260, 4.256e-10
   280, 8.492e-10
   300, 1.274e-09
   320, 1.710e-09
   340, 2.133e-09
   360, 2.565e-09
   380, 2.972e-09
   400, 3.412e-09
   420, 3.846e-09
   440, 4.256e-09
   460, 4.667e-09
   480, 5.117e-09
   500, 5.559e-09
   520, 5.985e-09
   540, 6.383e-09
   560, 6.808e-09
   580, 7.262e-09
   600, 7.674e-09
   620, 8.110e-09
   640, 8.492e-09
   660, 8.975e-09
   680, 9.398e-09
   700, 9.841e-09
   720, 1.021e-08
   740, 1.069e-08
   760, 1.109e-08
   780, 1.151e-08
   800, 1.194e-08
   820, 1.239e-08
   840, 1.274e-08
   860, 1.321e-08
   880, 1.358e-08
   900, 1.409e-08
   920, 1.449e-08
   940, 1.489e-08
   960, 1.531e-08
   980, 1.574e-08
  1000, 1.618e-08
  1020, 1.664e-08
  1040, 1.710e-08
  1060, 1.742e-08
  1080, 1.791e-08
  1100, 1.824e-08
  1120, 1.875e-08
  1140, 1.910e-08
  1160, 1.963e-08
  1180, 2.000e-08
  1200, 2.037e-08
  1220, 2.094e-08
  1240, 2.133e-08
  1260, 2.173e-08
  1280, 2.213e-08
  1300, 2.254e-08
  1320, 2.296e-08
  1340, 2.339e-08
  1360, 2.382e-08
  1380, 2.427e-08
  1400, 2.472e-08
  1420, 2.518e-08
  1440, 2.565e-08
  1460, 2.588e-08
  1480, 2.637e-08
  1500, 2.686e-08
  1520, 2.735e-08
  1540, 2.761e-08
  1560, 2.812e-08
  1580, 2.864e-08
  1600, 2.891e-08
  1620, 2.945e-08
  1640, 2.972e-08
  1660, 3.027e-08
  1680, 3.055e-08
  1700, 3.112e-08
  1720, 3.141e-08
  1740, 3.199e-08
  1760, 3.229e-08
  1780, 3.289e-08
  1800, 3.319e-08
  1820, 3.350e-08
  1840, 3.412e-08
  1860, 3.444e-08
  1880, 3.508e-08
  1900, 3.540e-08
  1920, 3.573e-08
  1940, 3.606e-08
  1960, 3.673e-08
  1980, 3.707e-08
  2000, 3.741e-08
  2020, 3.776e-08
  2040, 3.846e-08
  2060, 3.882e-08
  2080, 3.918e-08
  2100, 5.358e-08
  2120, 7.064e-08
  2140, 8.110e-08
  2160, 8.975e-08
  2180, 9.312e-08
  2200, 1.021e-07
  2220, 1.089e-07
  2240, 1.334e-07
  2260, 1.089e-07
  2280, 1.059e-07
  2300, 1.262e-07
  2320, 1.334e-07
  2340, 1.205e-07
  2360, 1.409e-07
  2380, 1.396e-07
  2400, 1.216e-07
  2420, 1.151e-07
  2440, 9.751e-08
  2460, 9.485e-08
  2480, 9.142e-08
  2500, 8.811e-08
  2520, 1.030e-07
  2540, 8.571e-08
  2560, 9.661e-08
  2580, 1.069e-07
  2600, 9.398e-08
  2620, 1.130e-07
  2640, 1.334e-07
  2660, 1.449e-07
  2680, 1.462e-07
  2700, 1.560e-07
  2720, 1.436e-07
  2740, 1.183e-07
  2760, 1.250e-07
  2780, 1.297e-07
  2800, 1.205e-07
  2820, 1.503e-07
  2840, 1.758e-07
  2860, 1.664e-07
  2880, 2.018e-07
  2900, 2.518e-07
  2920, 2.612e-07
  2940, 2.518e-07
  2960, 2.812e-07
  2980, 2.918e-07
  3000, 3.112e-07
  3020, 3.350e-07
  3040, 3.639e-07
  3060, 3.412e-07
  3080, 3.846e-07
  3100, 3.918e-07
  3120, 4.027e-07
  3140, 3.991e-07
  3160, 4.335e-07
  3180, 4.065e-07
  3200, 4.540e-07
  3220, 3.918e-07
  3240, 4.710e-07
  3260, 5.358e-07
  3280, 5.821e-07
  3300, 6.096e-07
  3320, 5.559e-07
  3340, 5.358e-07
  3360, 4.978e-07
  3380, 5.768e-07
  3400, 6.096e-07
  3420, 6.684e-07
  3440, 6.209e-07
  3460, 6.325e-07
  3480, 6.040e-07
  3500, 6.442e-07
  3520, 6.325e-07
  3540, 7.195e-07
  3560, 7.064e-07
  3580, 6.209e-07
  3600, 6.746e-07
  3650, 7.889e-07
  3700, 9.485e-07
  3750, 9.661e-07
  3800, 1.050e-06
  3850, 8.893e-07
  3900, 1.012e-06
  3950, 7.329e-07
  4000, 1.346e-06
  4050, 1.545e-06
  4100, 1.545e-06
  4150, 1.574e-06
  4200, 1.603e-06
  4250, 1.726e-06
  4300, 1.560e-06
  4350, 1.824e-06
  4400, 1.791e-06
  4450, 1.858e-06
  4500, 2.056e-06
  4550, 1.982e-06
  4600, 2.075e-06
  4650, 2.114e-06
  4700, 2.153e-06
  4750, 2.173e-06
  4800, 2.234e-06
  4850, 2.019e-06
  4900, 2.075e-06
  4950, 2.153e-06
  5000, 1.982e-06
  5050, 2.094e-06
  5100, 2.056e-06
  5150, 1.963e-06
  5200, 1.928e-06
  5250, 1.928e-06
  5300, 2.000e-06
  5350, 2.000e-06
  5400, 1.963e-06
  5450, 2.000e-06
  5500, 1.982e-06
  5550, 2.000e-06
  5600, 1.945e-06
  5650, 1.910e-06
  5700, 1.892e-06
  5750, 1.945e-06
  5800, 1.910e-06
  5850, 1.963e-06
  5900, 1.892e-06
  5950, 1.892e-06
  6000, 1.875e-06
  6050, 1.892e-06
  6100, 1.841e-06
  6150, 1.726e-06
  6200, 1.791e-06
  6250, 1.742e-06
  6300, 1.679e-06
  6350, 1.726e-06
  6400, 1.710e-06
  6450, 1.694e-06
  6500, 1.664e-06
  6550, 1.618e-06
  6600, 1.633e-06
  6650, 1.618e-06
  6700, 1.603e-06
  6750, 1.574e-06
  6800, 1.574e-06
  6850, 1.545e-06
  6900, 1.531e-06
  6950, 1.517e-06
  7000, 1.489e-06
  7050, 1.476e-06
  7100, 1.462e-06
  7150, 1.449e-06
  7200, 1.422e-06
  7250, 1.409e-06
  7300, 1.396e-06
  7350, 1.371e-06
  7400, 1.358e-06
  7450, 1.346e-06
  7500, 1.321e-06
  7550, 1.309e-06
  7600, 1.285e-06
  7650, 1.274e-06
  7700, 1.262e-06
  7750, 1.239e-06
  7800, 1.216e-06
  7850, 1.216e-06
  7900, 1.194e-06
  7950, 1.183e-06
  8000, 1.162e-06
  8050, 1.140e-06
  8100, 1.120e-06
  8150, 1.109e-06
  8200, 1.099e-06
  8250, 1.099e-06
  8300, 1.089e-06
  8350, 1.079e-06
  8400, 1.069e-06
  8450, 1.040e-06
  8500, 9.932e-07
  8550, 9.058e-07
  8600, 1.021e-06
  8650, 9.058e-07
  8700, 1.002e-06
  8750, 9.751e-07
  8800, 9.841e-07
  8850, 9.485e-07
  8900, 9.573e-07
  8950, 9.485e-07
  9000, 9.058e-07
  9050, 9.142e-07
  9100, 8.975e-07
  9150, 8.893e-07
  9200, 8.730e-07
  9250, 8.492e-07
  9300, 8.730e-07
  9350, 8.730e-07
  9400, 8.650e-07
  9450, 8.492e-07
  9500, 8.415e-07
  9550, 8.036e-07
  9600, 8.185e-07
  9650, 8.110e-07
  9700, 8.036e-07
  9750, 7.962e-07
  9800, 7.889e-07
  9850, 7.817e-07
  9900, 7.674e-07
  9950, 7.604e-07
 10000, 7.534e-07
 12500, 4.376e-07
 22000, 7.329e-08
 34000, 1.618e-08
