wavelength, flux
   240, 0.000e+00
   260, 0.000e+00
   280, 0.000e+00
   300, 0.000e+00
   320, 0.000e+00
   340, 0.000e+00
   360, 0.000e+00
   380, 0.000e+00
   400, 0.000e+00
   420, 0.000e+00
   440, 0.000e+00
   460, 0.000e+00
   480, 0.000e+00
   500, 0.000e+00
   520, 0.000e+00
   540, 0.000e+00
   560, 0.000e+00
   580, 0.000e+00
   600, 0.000e+00
   620, 0.000e+00
   640, 0.000e+00
   660, 0.000e+00
   680, 0.000e+00
   700, 0.000e+00
   720, 0.000e+00
   740, 0.000e+00
   760, 0.000e+00
   780, 0.000e+00
   800, 0.000e+00
   820, 0.000e+00
   840, 0.000e+00
   860, 0.000e+00
   880, 0.000e+00
   900, 0.000e+00
   920, 0.000e+00
   940, 0.000e+00
   960, 0.000e+00
   980, 0.000e+00
  1000, 0.000e+00
  1020, 0.000e+00
  1040, 0.000e+00
  1060, 0.000e+00
  1080, 0.000e+00
  1100, 0.000e+00
  1120, 2.153e-07
  1140, 2.318e-07
  1160, 2.382e-07
  1180, 2.018e-07
  1200, 1.069e-07
  1220, 6.999e-08
  1240, 1.742e-07
  1260, 2.339e-07
  1280, 2.382e-07
  1300, 2.234e-07
  1320, 2.405e-07
  1340, 2.449e-07
  1360, 2.427e-07
  1380, 2.495e-07
  1400, 2.405e-07
  1420, 2.405e-07
  1440, 2.541e-07
  1460, 2.565e-07
  1480, 2.427e-07
  1500, 2.382e-07
  1520, 2.339e-07
  1540, 2.339e-07
  1560, 2.296e-07
  1580, 2.173e-07
  1600, 2.018e-07
  1620, 1.875e-07
  1640, 1.807e-07
  1660, 1.791e-07
  1680, 1.824e-07
  1700, 1.758e-07
  1720, 1.633e-07
  1740, 1.574e-07
  1760, 1.574e-07
  1780, 1.574e-07
  1800, 1.250e-07
  1820, 1.262e-07
  1840, 1.183e-07
  1860, 1.228e-07
  1880, 1.151e-07
  1900, 1.099e-07
  1920, 1.120e-07
  1940, 1.099e-07
  1960, 1.059e-07
  1980, 1.002e-07
  2000, 9.661e-08
  2020, 9.312e-08
  2040, 9.226e-08
  2060, 8.975e-08
  2080, 8.730e-08
  2100, 8.811e-08
  2120, 8.730e-08
  2140, 8.415e-08
  2160, 8.415e-08
  2180, 8.185e-08
  2200, 7.889e-08
  2220, 7.604e-08
  2240, 7.262e-08
  2260, 7.397e-08
  2280, 7.397e-08
  2300, 7.329e-08
  2320, 7.262e-08
  2340, 6.999e-08
  2360, 6.808e-08
  2380, 6.746e-08
  2400, 7.064e-08
  2420, 7.064e-08
  2440, 7.064e-08
  2460, 6.871e-08
  2480, 6.746e-08
  2500, 6.871e-08
  2520, 6.623e-08
  2540, 6.325e-08
  2560, 6.267e-08
  2580, 6.383e-08
  2600, 6.383e-08
  2620, 6.209e-08
  2640, 6.096e-08
  2660, 6.152e-08
  2680, 5.985e-08
  2700, 5.985e-08
  2720, 6.096e-08
  2740, 5.875e-08
  2760, 5.715e-08
  2780, 5.611e-08
  2800, 5.408e-08
  2820, 5.663e-08
  2840, 5.559e-08
  2860, 5.408e-08
  2880, 5.408e-08
  2900, 5.261e-08
  2920, 5.212e-08
  2940, 5.024e-08
  2960, 4.978e-08
  2980, 4.932e-08
  3000, 4.798e-08
  3020, 4.932e-08
  3040, 4.798e-08
  3060, 4.754e-08
  3080, 4.798e-08
  3100, 4.624e-08
  3120, 4.710e-08
  3140, 4.667e-08
  3160, 4.624e-08
  3180, 4.540e-08
  3200, 4.416e-08
  3220, 4.416e-08
  3240, 4.457e-08
  3260, 4.416e-08
  3280, 4.296e-08
  3300, 4.217e-08
  3320, 4.256e-08
  3340, 4.179e-08
  3360, 4.027e-08
  3380, 4.027e-08
  3400, 3.954e-08
  3420, 3.954e-08
  3440, 3.811e-08
  3460, 3.776e-08
  3480, 3.811e-08
  3500, 3.811e-08
  3520, 3.707e-08
  3540, 3.673e-08
  3560, 3.573e-08
  3580, 3.540e-08
  3600, 3.508e-08
  3650, 3.350e-08
  3700, 3.289e-08
  3750, 3.412e-08
  3800, 3.741e-08
  3850, 3.954e-08
  3900, 3.846e-08
  3950, 3.776e-08
  4000, 3.811e-08
  4050, 3.776e-08
  4100, 3.259e-08
  4150, 3.606e-08
  4200, 3.540e-08
  4250, 3.412e-08
  4300, 3.289e-08
  4350, 2.735e-08
  4400, 3.055e-08
  4450, 2.891e-08
  4500, 2.812e-08
  4550, 2.710e-08
  4600, 2.612e-08
  4650, 2.518e-08
  4700, 2.427e-08
  4750, 2.361e-08
  4800, 2.275e-08
  4850, 1.945e-08
  4900, 2.133e-08
  4950, 2.037e-08
  5000, 1.963e-08
  5050, 1.910e-08
  5100, 1.841e-08
  5150, 1.791e-08
  5200, 1.726e-08
  5250, 1.679e-08
  5300, 1.633e-08
  5350, 1.574e-08
  5400, 1.531e-08
  5450, 1.476e-08
  5500, 1.436e-08
  5550, 1.396e-08
  5600, 1.358e-08
  5650, 1.321e-08
  5700, 1.285e-08
  5750, 1.250e-08
  5800, 1.216e-08
  5850, 1.183e-08
  5900, 1.162e-08
  5950, 1.120e-08
  6000, 1.089e-08
  6050, 1.059e-08
  6100, 1.030e-08
  6150, 1.002e-08
  6200, 9.751e-09
  6250, 9.485e-09
  6300, 9.226e-09
  6350, 8.893e-09
  6400, 8.650e-09
  6450, 8.415e-09
  6500, 8.185e-09
  6550, 7.064e-09
  6600, 7.745e-09
  6650, 7.534e-09
  6700, 7.329e-09
  6750, 7.195e-09
  6800, 6.999e-09
  6850, 6.871e-09
  6900, 6.746e-09
  6950, 6.562e-09
  7000, 6.442e-09
  7050, 6.325e-09
  7100, 6.209e-09
  7150, 6.096e-09
  7200, 5.930e-09
  7250, 5.821e-09
  7300, 5.715e-09
  7350, 5.559e-09
  7400, 5.458e-09
  7450, 5.358e-09
  7500, 5.212e-09
  7550, 5.117e-09
  7600, 4.978e-09
  7650, 4.887e-09
  7700, 4.754e-09
  7750, 4.667e-09
  7800, 4.582e-09
  7850, 4.457e-09
  7900, 4.376e-09
  7950, 4.296e-09
  8000, 4.179e-09
  8050, 4.102e-09
  8100, 4.027e-09
  8150, 3.954e-09
  8200, 3.846e-09
  8250, 3.776e-09
  8300, 3.673e-09
  8350, 3.606e-09
  8400, 3.540e-09
  8450, 3.476e-09
  8500, 3.381e-09
  8550, 3.319e-09
  8600, 3.289e-09
  8650, 3.259e-09
  8700, 3.229e-09
  8750, 3.141e-09
  8800, 3.112e-09
  8850, 2.838e-09
  8900, 2.972e-09
  8950, 3.027e-09
  9000, 2.686e-09
  9050, 2.786e-09
  9100, 2.864e-09
  9150, 2.812e-09
  9200, 2.637e-09
  9250, 2.449e-09
  9300, 2.637e-09
  9350, 2.565e-09
  9400, 2.518e-09
  9450, 2.472e-09
  9500, 2.382e-09
  9550, 2.075e-09
  9600, 2.296e-09
  9650, 2.275e-09
  9700, 2.213e-09
  9750, 2.173e-09
  9800, 2.133e-09
  9850, 2.094e-09
  9900, 2.056e-09
  9950, 2.019e-09
 10000, 1.982e-09
 12500, 9.058e-10
 22000, 9.142e-11
 34000, 1.879e-11
