wavelength, flux
          229.,          0.
          234.,          0.
          243.,          0.
          252.,          0.
          256.,          0.
          260.,          0.
          266.,          0.
          275.,          0.
          283.,          0.
          293.,          0.
          301.,          0.
          309.,          0.
          325.,          0.
          342.,          0.
          351.,          0.
          356.,          0.
          365.,          0.
          375.,          0.
          384.,          0.
          400.,          0.
          415.,          0.
          425.,          0.
          445.,          0.
          472.,          0.
          494.,          0.
          506.,   2.061E-16
          516.,   3.400E-16
          540.,   8.969E-16
          564.,   2.188E-15
          587.,   4.486E-15
          612.,   1.010E-14
          640.,   2.196E-14
          671.,   4.826E-14
          705.,   1.065E-13
          736.,   2.038E-13
          770.,   3.934E-13
          810.,   7.834E-13
          850.,   1.455E-12
          890.,   2.574E-12
          920.,   4.259E-11
          940.,   5.263E-10
          962.,    4.289E-9
          987.,    1.498E-8
         1012.,    1.493E-8
         1037.,    1.635E-8
         1062.,    2.772E-8
         1087.,    2.495E-8
         1112.,    3.368E-8
         1120.,    3.482E-8
         1140.,    3.741E-8
         1160.,    3.864E-8
         1180.,    3.257E-8
         1200.,    1.733E-8
         1220.,    1.132E-8
         1240.,    2.811E-8
         1260.,    3.795E-8
         1280.,    3.857E-8
         1300.,    3.628E-8
         1320.,    3.900E-8
         1340.,    3.981E-8
         1360.,    3.937E-8
         1380.,    4.055E-8
         1400.,    3.894E-8
         1420.,    3.882E-8
         1440.,    4.123E-8
         1460.,    4.161E-8
         1480.,    3.926E-8
         1500.,    3.857E-8
         1520.,    3.802E-8
         1540.,    3.777E-8
         1560.,    3.702E-8
         1580.,    3.516E-8
         1600.,    3.275E-8
         1620.,    3.046E-8
         1640.,    2.922E-8
         1660.,    2.898E-8
         1680.,    2.959E-8
         1700.,    2.854E-8
         1720.,    2.650E-8
         1740.,    2.557E-8
         1760.,    2.551E-8
         1780.,    2.539E-8
         1800.,    2.018E-8
         1820.,    2.036E-8
         1840.,    1.919E-8
         1860.,    1.993E-8
         1880.,    1.857E-8
         1900.,    1.771E-8
         1920.,    1.808E-8
         1940.,    1.771E-8
         1960.,    1.709E-8
         1980.,    1.628E-8
         2000.,    1.560E-8
         2002.,    1.554E-8
         2005.,    1.547E-8
         2008.,    1.541E-8
         2010.,    1.535E-8
         2012.,    1.529E-8
         2015.,    1.523E-8
         2018.,    1.517E-8
         2020.,    1.511E-8
         2022.,    1.509E-8
         2025.,    1.507E-8
         2027.,    1.506E-8
         2030.,    1.504E-8
         2032.,    1.503E-8
         2035.,    1.501E-8
         2038.,    1.499E-8
         2040.,    1.498E-8
         2042.,    1.492E-8
         2045.,    1.486E-8
         2048.,    1.479E-8
         2050.,    1.473E-8
         2052.,    1.467E-8
         2055.,    1.461E-8
         2058.,    1.455E-8
         2060.,    1.449E-8
         2062.,    1.444E-8
         2065.,    1.439E-8
         2067.,    1.435E-8
         2070.,    1.430E-8
         2072.,    1.425E-8
         2075.,    1.421E-8
         2077.,    1.416E-8
         2080.,    1.411E-8
         2082.,    1.413E-8
         2085.,    1.414E-8
         2088.,    1.416E-8
         2090.,    1.418E-8
         2092.,    1.419E-8
         2095.,    1.421E-8
         2098.,    1.422E-8
         2100.,    1.424E-8
         2102.,    1.423E-8
         2105.,    1.422E-8
         2107.,    1.422E-8
         2110.,    1.421E-8
         2112.,    1.420E-8
         2115.,    1.419E-8
         2118.,    1.418E-8
         2120.,    1.417E-8
         2122.,    1.410E-8
         2125.,    1.403E-8
         2128.,    1.396E-8
         2130.,    1.389E-8
         2133.,    1.382E-8
         2135.,    1.375E-8
         2138.,    1.368E-8
         2140.,    1.362E-8
         2142.,    1.362E-8
         2145.,    1.363E-8
         2147.,    1.364E-8
         2150.,    1.365E-8
         2153.,    1.365E-8
         2155.,    1.366E-8
         2157.,    1.367E-8
         2160.,    1.368E-8
         2162.,    1.362E-8
         2165.,    1.357E-8
         2168.,    1.352E-8
         2170.,    1.346E-8
         2173.,    1.341E-8
         2175.,    1.336E-8
         2177.,    1.330E-8
         2180.,    1.325E-8
         2182.,    1.319E-8
         2185.,    1.313E-8
         2187.,    1.306E-8
         2190.,    1.300E-8
         2193.,    1.294E-8
         2195.,    1.288E-8
         2198.,    1.282E-8
         2200.,    1.275E-8
         2202.,    1.269E-8
         2205.,    1.263E-8
         2208.,    1.257E-8
         2210.,    1.251E-8
         2213.,    1.245E-8
         2215.,    1.238E-8
         2218.,    1.232E-8
         2220.,    1.226E-8
         2222.,    1.219E-8
         2225.,    1.212E-8
         2227.,    1.205E-8
         2230.,    1.198E-8
         2233.,    1.191E-8
         2235.,    1.184E-8
         2237.,    1.177E-8
         2240.,    1.170E-8
         2242.,    1.173E-8
         2245.,    1.176E-8
         2248.,    1.179E-8
         2250.,    1.182E-8
         2253.,    1.185E-8
         2255.,    1.188E-8
         2257.,    1.191E-8
         2260.,    1.194E-8
         2262.,    1.195E-8
         2265.,    1.196E-8
         2267.,    1.197E-8
         2270.,    1.197E-8
         2273.,    1.198E-8
         2275.,    1.199E-8
         2277.,    1.200E-8
         2280.,    1.201E-8
         2282.,    1.199E-8
         2285.,    1.198E-8
         2288.,    1.196E-8
         2290.,    1.195E-8
         2293.,    1.193E-8
         2295.,    1.192E-8
         2298.,    1.190E-8
         2300.,    1.189E-8
         2302.,    1.186E-8
         2305.,    1.184E-8
         2307.,    1.182E-8
         2310.,    1.179E-8
         2313.,    1.177E-8
         2315.,    1.175E-8
         2317.,    1.173E-8
         2320.,    1.170E-8
         2322.,    1.165E-8
         2325.,    1.161E-8
         2327.,    1.156E-8
         2330.,    1.151E-8
         2333.,    1.147E-8
         2335.,    1.142E-8
         2337.,    1.137E-8
         2340.,    1.132E-8
         2342.,    1.129E-8
         2345.,    1.125E-8
         2347.,    1.121E-8
         2350.,    1.117E-8
         2353.,    1.113E-8
         2355.,    1.110E-8
         2357.,    1.106E-8
         2360.,    1.102E-8
         2362.,    1.101E-8
         2365.,    1.099E-8
         2368.,    1.097E-8
         2370.,    1.096E-8
         2373.,    1.094E-8
         2375.,    1.093E-8
         2377.,    1.091E-8
         2380.,    1.090E-8
         2383.,    1.096E-8
         2385.,    1.102E-8
         2387.,    1.108E-8
         2390.,    1.115E-8
         2393.,    1.121E-8
         2395.,    1.127E-8
         2397.,    1.133E-8
         2400.,    1.139E-8
         2403.,    1.140E-8
         2405.,    1.141E-8
         2407.,    1.141E-8
         2410.,    1.142E-8
         2413.,    1.143E-8
         2415.,    1.143E-8
         2417.,    1.144E-8
         2420.,    1.145E-8
         2423.,    1.145E-8
         2425.,    1.145E-8
         2427.,    1.145E-8
         2430.,    1.145E-8
         2433.,    1.145E-8
         2435.,    1.145E-8
         2437.,    1.145E-8
         2440.,    1.145E-8
         2443.,    1.140E-8
         2445.,    1.136E-8
         2448.,    1.131E-8
         2450.,    1.127E-8
         2452.,    1.122E-8
         2455.,    1.117E-8
         2457.,    1.113E-8
         2460.,    1.108E-8
         2463.,    1.107E-8
         2465.,    1.105E-8
         2467.,    1.103E-8
         2470.,    1.102E-8
         2473.,    1.100E-8
         2475.,    1.099E-8
         2477.,    1.097E-8
         2480.,    1.095E-8
         2483.,    1.097E-8
         2485.,    1.099E-8
         2487.,    1.100E-8
         2490.,    1.102E-8
         2493.,    1.103E-8
         2495.,    1.105E-8
         2497.,    1.107E-8
         2500.,    1.108E-8
         2502.,    1.104E-8
         2505.,    1.100E-8
         2507.,    1.096E-8
         2510.,    1.092E-8
         2513.,    1.089E-8
         2515.,    1.085E-8
         2518.,    1.081E-8
         2520.,    1.077E-8
         2522.,    1.070E-8
         2525.,    1.063E-8
         2527.,    1.056E-8
         2530.,    1.049E-8
         2532.,    1.042E-8
         2535.,    1.035E-8
         2538.,    1.028E-8
         2540.,    1.022E-8
         2542.,    1.021E-8
         2545.,    1.020E-8
         2548.,    1.019E-8
         2550.,    1.018E-8
         2552.,    1.017E-8
         2555.,    1.016E-8
         2558.,    1.016E-8
         2560.,    1.015E-8
         2562.,    1.017E-8
         2565.,    1.019E-8
         2567.,    1.022E-8
         2570.,    1.024E-8
         2573.,    1.026E-8
         2575.,    1.029E-8
         2577.,    1.031E-8
         2580.,    1.033E-8
         2582.,    1.033E-8
         2585.,    1.033E-8
         2587.,    1.033E-8
         2590.,    1.033E-8
         2593.,    1.033E-8
         2595.,    1.033E-8
         2598.,    1.033E-8
         2600.,    1.033E-8
         2602.,    1.030E-8
         2605.,    1.026E-8
         2607.,    1.022E-8
         2610.,    1.018E-8
         2612.,    1.014E-8
         2615.,    1.011E-8
         2618.,    1.007E-8
         2620.,    1.003E-8
         2622.,    1.001E-8
         2625.,    9.999E-9
         2627.,    9.984E-9
         2630.,    9.969E-9
         2633.,    9.953E-9
         2635.,    9.938E-9
         2638.,    9.922E-9
         2640.,    9.907E-9
         2642.,    9.914E-9
         2645.,    9.920E-9
         2647.,    9.927E-9
         2650.,    9.934E-9
         2652.,    9.941E-9
         2655.,    9.949E-9
         2657.,    9.955E-9
         2660.,    9.962E-9
         2662.,    9.923E-9
         2665.,    9.885E-9
         2667.,    9.846E-9
         2670.,    9.807E-9
         2673.,    9.769E-9
         2675.,    9.730E-9
         2677.,    9.691E-9
         2680.,    9.653E-9
         2682.,    9.653E-9
         2685.,    9.653E-9
         2687.,    9.653E-9
         2690.,    9.653E-9
         2692.,    9.653E-9
         2695.,    9.653E-9
         2698.,    9.653E-9
         2700.,    9.653E-9
         2702.,    9.676E-9
         2705.,    9.699E-9
         2707.,    9.722E-9
         2710.,    9.746E-9
         2713.,    9.769E-9
         2715.,    9.792E-9
         2718.,    9.815E-9
         2720.,    9.838E-9
         2722.,    9.792E-9
         2725.,    9.746E-9
         2727.,    9.699E-9
         2730.,    9.653E-9
         2732.,    9.606E-9
         2735.,    9.560E-9
         2737.,    9.513E-9
         2740.,    9.467E-9
         2742.,    9.444E-9
         2745.,    9.420E-9
         2747.,    9.397E-9
         2750.,    9.374E-9
         2753.,    9.351E-9
         2755.,    9.328E-9
         2758.,    9.304E-9
         2760.,    9.281E-9
         2762.,    9.258E-9
         2765.,    9.235E-9
         2767.,    9.212E-9
         2770.,    9.188E-9
         2772.,    9.165E-9
         2775.,    9.142E-9
         2778.,    9.119E-9
         2780.,    9.095E-9
         2782.,    9.057E-9
         2785.,    9.018E-9
         2787.,    8.979E-9
         2790.,    8.941E-9
         2793.,    8.902E-9
         2795.,    8.863E-9
         2798.,    8.824E-9
         2800.,    8.786E-9
         2802.,    8.832E-9
         2805.,    8.879E-9
         2807.,    8.925E-9
         2810.,    8.972E-9
         2812.,    9.018E-9
         2815.,    9.064E-9
         2817.,    9.111E-9
         2820.,    9.157E-9
         2823.,    9.134E-9
         2825.,    9.111E-9
         2827.,    9.088E-9
         2830.,    9.064E-9
         2833.,    9.041E-9
         2835.,    9.018E-9
         2838.,    8.995E-9
         2840.,    8.972E-9
         2842.,    8.941E-9
         2845.,    8.911E-9
         2847.,    8.881E-9
         2850.,    8.851E-9
         2852.,    8.821E-9
         2855.,    8.791E-9
         2858.,    8.760E-9
         2860.,    8.730E-9
         2862.,    8.730E-9
         2865.,    8.730E-9
         2867.,    8.730E-9
         2870.,    8.730E-9
         2873.,    8.730E-9
         2875.,    8.730E-9
         2878.,    8.730E-9
         2880.,    8.730E-9
         2883.,    8.699E-9
         2885.,    8.667E-9
         2887.,    8.635E-9
         2890.,    8.603E-9
         2892.,    8.572E-9
         2895.,    8.540E-9
         2898.,    8.508E-9
         2900.,    8.476E-9
         2903.,    8.469E-9
         2905.,    8.463E-9
         2907.,    8.455E-9
         2910.,    8.448E-9
         2913.,    8.441E-9
         2915.,    8.434E-9
         2918.,    8.428E-9
         2920.,    8.421E-9
         2923.,    8.389E-9
         2925.,    8.357E-9
         2927.,    8.325E-9
         2930.,    8.294E-9
         2932.,    8.262E-9
         2935.,    8.230E-9
         2938.,    8.198E-9
         2940.,    8.167E-9
         2942.,    8.152E-9
         2945.,    8.137E-9
         2948.,    8.122E-9
         2950.,    8.108E-9
         2952.,    8.093E-9
         2955.,    8.078E-9
         2958.,    8.064E-9
         2960.,    8.049E-9
         2963.,    8.041E-9
         2965.,    8.032E-9
         2967.,    8.024E-9
         2970.,    8.015E-9
         2972.,    8.006E-9
         2975.,    7.998E-9
         2978.,    7.989E-9
         2980.,    7.981E-9
         2983.,    7.958E-9
         2985.,    7.934E-9
         2987.,    7.911E-9
         2990.,    7.888E-9
         2993.,    7.865E-9
         2995.,    7.842E-9
         2998.,    7.818E-9
         3000.,    7.795E-9
         3003.,    7.818E-9
         3005.,    7.842E-9
         3007.,    7.865E-9
         3010.,    7.888E-9
         3012.,    7.911E-9
         3015.,    7.934E-9
         3018.,    7.958E-9
         3020.,    7.981E-9
         3023.,    7.958E-9
         3025.,    7.934E-9
         3027.,    7.911E-9
         3030.,    7.888E-9
         3032.,    7.865E-9
         3035.,    7.842E-9
         3038.,    7.818E-9
         3040.,    7.795E-9
         3043.,    7.780E-9
         3045.,    7.764E-9
         3048.,    7.749E-9
         3050.,    7.733E-9
         3052.,    7.718E-9
         3055.,    7.702E-9
         3058.,    7.687E-9
         3060.,    7.671E-9
         3063.,    7.687E-9
         3065.,    7.702E-9
         3067.,    7.718E-9
         3070.,    7.733E-9
         3073.,    7.749E-9
         3075.,    7.764E-9
         3077.,    7.780E-9
         3080.,    7.795E-9
         3083.,    7.757E-9
         3085.,    7.718E-9
         3087.,    7.679E-9
         3090.,    7.640E-9
         3092.,    7.602E-9
         3095.,    7.563E-9
         3098.,    7.524E-9
         3100.,    7.486E-9
         3103.,    7.501E-9
         3105.,    7.517E-9
         3107.,    7.532E-9
         3110.,    7.547E-9
         3112.,    7.563E-9
         3115.,    7.578E-9
         3118.,    7.594E-9
         3120.,    7.609E-9
         3123.,    7.602E-9
         3125.,    7.595E-9
         3127.,    7.589E-9
         3130.,    7.582E-9
         3132.,    7.575E-9
         3135.,    7.567E-9
         3138.,    7.561E-9
         3140.,    7.554E-9
         3143.,    7.545E-9
         3145.,    7.537E-9
         3147.,    7.528E-9
         3150.,    7.520E-9
         3152.,    7.511E-9
         3155.,    7.503E-9
         3157.,    7.494E-9
         3160.,    7.486E-9
         3163.,    7.471E-9
         3165.,    7.456E-9
         3167.,    7.442E-9
         3170.,    7.427E-9
         3173.,    7.412E-9
         3175.,    7.397E-9
         3177.,    7.383E-9
         3180.,    7.368E-9
         3183.,    7.337E-9
         3185.,    7.306E-9
         3187.,    7.275E-9
         3190.,    7.244E-9
         3192.,    7.213E-9
         3195.,    7.182E-9
         3198.,    7.151E-9
         3200.,    7.121E-9
         3202.,    7.121E-9
         3205.,    7.121E-9
         3208.,    7.121E-9
         3210.,    7.121E-9
         3212.,    7.121E-9
         3215.,    7.121E-9
         3217.,    7.121E-9
         3220.,    7.121E-9
         3223.,    7.128E-9
         3225.,    7.136E-9
         3227.,    7.143E-9
         3230.,    7.151E-9
         3233.,    7.159E-9
         3235.,    7.167E-9
         3237.,    7.174E-9
         3240.,    7.182E-9
         3260.,    7.265E-9
         3270.,    6.990E-9
         3280.,    6.857E-9
         3290.,    6.756E-9
         3300.,    6.849E-9
         3310.,    6.830E-9
         3320.,    6.659E-9
         3330.,    6.711E-9
         3340.,    6.623E-9
         3350.,    6.738E-9
         3360.,    6.585E-9
         3370.,    6.560E-9
         3380.,    6.447E-9
         3390.,    6.549E-9
         3400.,    6.476E-9
         3410.,    6.360E-9
         3420.,    6.369E-9
         3430.,    6.212E-9
         3440.,    6.165E-9
         3450.,    6.199E-9
         3460.,    6.169E-9
         3470.,    6.170E-9
         3480.,    6.048E-9
         3490.,    5.985E-9
         3500.,    5.985E-9
         3510.,    5.997E-9
         3520.,    6.000E-9
         3530.,    5.913E-9
         3540.,    6.081E-9
         3550.,    5.938E-9
         3560.,    5.944E-9
         3570.,    5.873E-9
         3580.,    5.857E-9
         3590.,    5.747E-9
         3600.,    5.821E-9
         3610.,    5.752E-9
         3620.,    5.791E-9
         3630.,    5.721E-9
         3640.,    5.660E-9
         3650.,    5.629E-9
         3660.,    5.594E-9
         3670.,    5.533E-9
         3680.,    5.470E-9
         3690.,    5.466E-9
         3700.,    5.527E-9
         3710.,    5.513E-9
         3720.,    5.695E-9
         3730.,    5.766E-9
         3740.,    6.094E-9
         3750.,    6.340E-9
         3760.,    6.750E-9
         3770.,    6.787E-9
         3780.,    7.689E-9
         3790.,    7.671E-9
         3800.,    6.950E-9
         3810.,    8.408E-9
         3820.,    9.096E-9
         3830.,    7.219E-9
         3840.,    6.954E-9
         3850.,    9.057E-9
         3860.,    9.815E-9
         3870.,    9.531E-9
         3880.,    7.818E-9
         3890.,    6.523E-9
         3900.,    7.789E-9
         3910.,    9.216E-9
         3920.,    9.636E-9
         3930.,    9.545E-9
         3940.,    9.595E-9
         3950.,    9.386E-9
         3960.,    7.707E-9
         3970.,    6.374E-9
         3980.,    7.637E-9
         3990.,    9.418E-9
         4000.,    9.800E-9
         4010.,    9.778E-9
         4020.,    9.527E-9
         4030.,    9.648E-9
         4040.,    9.773E-9
         4050.,    9.652E-9
         4060.,    9.578E-9
         4070.,    9.360E-9
         4080.,    8.981E-9
         4090.,    7.720E-9
         4100.,    6.326E-9
         4110.,    7.148E-9
         4120.,    8.602E-9
         4130.,    8.936E-9
         4140.,    8.849E-9
         4150.,    8.876E-9
         4160.,    8.909E-9
         4170.,    8.823E-9
         4180.,    8.818E-9
         4190.,    8.813E-9
         4200.,    8.740E-9
         4210.,    8.625E-9
         4220.,    8.676E-9
         4230.,    8.398E-9
         4240.,    8.449E-9
         4250.,    8.391E-9
         4260.,    8.358E-9
         4270.,    8.259E-9
         4280.,    8.202E-9
         4290.,    8.040E-9
         4300.,    7.944E-9
         4310.,    7.813E-9
         4320.,    7.357E-9
         4330.,    5.987E-9
         4340.,    5.223E-9
         4350.,    6.433E-9
         4360.,    7.509E-9
         4370.,    7.646E-9
         4380.,    7.503E-9
         4390.,    7.423E-9
         4400.,    7.452E-9
         4410.,    7.435E-9
         4420.,    7.413E-9
         4430.,    7.335E-9
         4440.,    7.207E-9
         4450.,    7.143E-9
         4460.,    7.034E-9
         4470.,    6.741E-9
         4480.,    6.732E-9
         4490.,    6.859E-9
         4500.,    6.818E-9
         4510.,    6.809E-9
         4520.,    6.768E-9
         4530.,    6.669E-9
         4540.,    6.645E-9
         4550.,    6.516E-9
         4560.,    6.546E-9
         4570.,    6.512E-9
         4580.,    6.452E-9
         4590.,    6.424E-9
         4600.,    6.360E-9
         4610.,    6.332E-9
         4620.,    6.367E-9
         4630.,    6.314E-9
         4640.,    6.271E-9
         4650.,    6.239E-9
         4660.,    6.187E-9
         4670.,    6.186E-9
         4680.,    6.169E-9
         4690.,    6.118E-9
         4700.,    6.063E-9
         4710.,    5.998E-9
         4720.,    6.002E-9
         4730.,    6.059E-9
         4740.,    6.058E-9
         4750.,    5.994E-9
         4760.,    5.882E-9
         4770.,    5.805E-9
         4780.,    5.814E-9
         4790.,    5.771E-9
         4800.,    5.671E-9
         4810.,    5.648E-9
         4820.,    5.596E-9
         4830.,    5.456E-9
         4840.,    5.164E-9
         4850.,    4.309E-9
         4860.,    3.722E-9
         4870.,    4.245E-9
         4880.,    5.034E-9
         4890.,    5.214E-9
         4900.,    5.301E-9
         4910.,    5.252E-9
         4920.,    5.114E-9
         4930.,    5.138E-9
         4940.,    5.216E-9
         4950.,    5.177E-9
         4960.,    5.094E-9
         4970.,    5.096E-9
         4980.,    5.088E-9
         4990.,    5.077E-9
         5000.,    5.026E-9
         5010.,    4.924E-9
         5020.,    4.943E-9
         5030.,    4.876E-9
         5040.,    4.831E-9
         5050.,    4.747E-9
         5060.,    4.712E-9
         5070.,    4.697E-9
         5080.,    4.662E-9
         5090.,    4.589E-9
         5100.,    4.555E-9
         5110.,    4.599E-9
         5120.,    4.573E-9
         5130.,    4.576E-9
         5140.,    4.628E-9
         5150.,    4.573E-9
         5160.,    4.490E-9
         5170.,    4.485E-9
         5180.,    4.443E-9
         5190.,    4.362E-9
         5200.,    4.385E-9
         5210.,    4.308E-9
         5220.,    4.255E-9
         5230.,    4.227E-9
         5240.,    4.148E-9
         5250.,    4.120E-9
         5260.,    4.136E-9
         5270.,    4.113E-9
         5280.,    4.038E-9
         5290.,    4.054E-9
         5300.,    4.062E-9
         5310.,    3.993E-9
         5320.,    3.916E-9
         5330.,    3.898E-9
         5340.,    3.910E-9
         5350.,    3.823E-9
         5360.,    3.835E-9
         5370.,    3.799E-9
         5380.,    3.803E-9
         5390.,    3.785E-9
         5400.,    3.726E-9
         5410.,    3.712E-9
         5420.,    3.732E-9
         5430.,    3.679E-9
         5440.,    3.712E-9
         5450.,    3.658E-9
         5460.,    3.624E-9
         5470.,    3.629E-9
         5480.,    3.602E-9
         5490.,    3.574E-9
         5500.,    3.581E-9
         5510.,    3.509E-9
         5520.,    3.518E-9
         5530.,    3.487E-9
         5540.,    3.504E-9
         5550.,    3.473E-9
         5560.,    3.419E-9
         5570.,    3.431E-9
         5580.,    3.408E-9
         5590.,    3.364E-9
         5600.,    3.327E-9
         5610.,    3.357E-9
         5620.,    3.363E-9
         5630.,    3.316E-9
         5640.,    3.341E-9
         5650.,    3.259E-9
         5660.,    3.273E-9
         5670.,    3.243E-9
         5680.,    3.216E-9
         5690.,    3.272E-9
         5700.,    3.185E-9
         5710.,    3.174E-9
         5720.,    3.149E-9
         5730.,    3.211E-9
         5740.,    3.111E-9
         5760.,    3.060E-9
         5780.,    3.052E-9
         5800.,    3.039E-9
         5820.,    3.012E-9
         5840.,    2.966E-9
         5860.,    2.865E-9
         5880.,    2.842E-9
         5900.,    2.763E-9
         5920.,    2.801E-9
         5940.,    2.788E-9
         5960.,    2.745E-9
         5980.,    2.723E-9
         6000.,    2.687E-9
         6020.,    2.669E-9
         6040.,    2.648E-9
         6060.,    2.622E-9
         6080.,    2.665E-9
         6100.,    2.668E-9
         6120.,    2.604E-9
         6140.,    2.549E-9
         6160.,    2.528E-9
         6180.,    2.491E-9
         6200.,    2.490E-9
         6220.,    2.450E-9
         6240.,    2.428E-9
         6260.,    2.375E-9
         6280.,    2.382E-9
         6300.,    2.414E-9
         6320.,    2.359E-9
         6340.,    2.364E-9
         6360.,    2.315E-9
         6380.,    2.312E-9
         6400.,    2.292E-9
         6420.,    2.243E-9
         6440.,    2.247E-9
         6460.,    2.215E-9
         6480.,    2.185E-9
         6500.,    2.168E-9
         6520.,    2.144E-9
         6540.,    1.900E-9
         6560.,    1.849E-9
         6580.,    2.011E-9
         6600.,    2.081E-9
         6620.,    2.041E-9
         6640.,    2.040E-9
         6660.,    1.994E-9
         6680.,    2.003E-9
         6700.,    1.958E-9
         6720.,    1.942E-9
         6740.,    1.928E-9
         6760.,    1.896E-9
         6780.,    1.868E-9
         6800.,    1.888E-9
         6820.,    1.872E-9
         6840.,    1.869E-9
         6860.,    1.760E-9
         6880.,    1.744E-9
         6900.,    1.763E-9
         6920.,    1.774E-9
         6940.,    1.733E-9
         6960.,    1.710E-9
         6980.,    1.673E-9
         7000.,    1.676E-9
         7020.,    1.674E-9
         7040.,    1.649E-9
         7060.,    1.634E-9
         7080.,    1.634E-9
         7100.,    1.622E-9
         7120.,    1.585E-9
         7140.,    1.539E-9
         7160.,    1.550E-9
         7180.,    1.524E-9
         7200.,    1.514E-9
         7220.,    1.492E-9
         7240.,    1.454E-9
         7260.,    1.452E-9
         7280.,    1.446E-9
         7300.,    1.446E-9
         7320.,    1.435E-9
         7340.,    1.401E-9
         7360.,    1.394E-9
         7380.,    1.395E-9
         7400.,    1.389E-9
         7420.,    1.372E-9
         7440.,    1.363E-9
         7460.,    1.355E-9
         7480.,    1.341E-9
         7500.,    1.309E-9
         7520.,    1.362E-9
         7540.,    1.372E-9
         7560.,    1.344E-9
         7580.,    1.165E-9
         7600.,    1.000E-9
         7620.,    1.263E-9
         7640.,    1.256E-9
         7660.,    1.235E-9
         7680.,    1.134E-9
         7700.,    1.168E-9
         7720.,    1.172E-9
         7740.,    1.178E-9
         7760.,    1.165E-9
         7780.,    1.168E-9
         7800.,    1.177E-9
         7820.,    1.149E-9
         7840.,    1.131E-9
         7860.,    1.103E-9
         7880.,    1.111E-9
         7900.,    1.114E-9
         7920.,    1.110E-9
         7940.,    1.089E-9
         7960.,    1.089E-9
         7980.,    1.084E-9
         8000.,    1.073E-9
         8020.,    1.057E-9
         8040.,    1.030E-9
         8060.,    1.014E-9
         8080.,    1.020E-9
         8100.,   9.961E-10
         8120.,    1.035E-9
         8140.,   9.915E-10
         8160.,   9.716E-10
         8180.,   9.928E-10
         8200.,    1.007E-9
         8220.,   9.701E-10
         8240.,    1.013E-9
         8260.,   9.646E-10
         8280.,   9.450E-10
         8300.,   9.302E-10
         8320.,   9.735E-10
         8340.,   9.526E-10
         8360.,   9.282E-10
         8380.,   9.319E-10
         8400.,   9.230E-10
         8420.,   8.748E-10
         8440.,   9.006E-10
         8460.,   9.227E-10
         8480.,   8.926E-10
         8500.,   9.155E-10
         8520.,   8.784E-10
         8540.,   9.083E-10
         8560.,   8.537E-10
         8580.,   8.268E-10
         8600.,   9.013E-10
         8620.,   9.484E-10
         8640.,   8.613E-10
         8660.,   8.617E-10
         8680.,   9.407E-10
         8700.,   9.185E-10
         8720.,   8.971E-10
         8740.,   8.024E-10
         8760.,   8.489E-10
         8780.,   8.971E-10
         8800.,   8.626E-10
         8820.,   8.945E-10
         8840.,   8.142E-10
         8860.,   7.430E-10
         8880.,   8.014E-10
         8900.,   8.649E-10
         8920.,   8.519E-10
         8940.,   8.287E-10
         8960.,   7.767E-10
         8980.,   7.185E-10
         9000.,   6.660E-10
         9020.,   7.371E-10
         9040.,   8.265E-10
         9060.,   7.729E-10
         9080.,   7.559E-10
         9100.,   7.829E-10
         9120.,   8.034E-10
         9140.,   7.424E-10
         9160.,   7.150E-10
         9180.,   7.691E-10
         9200.,   6.405E-10
         9220.,   6.434E-10
         9240.,   6.741E-10
         9260.,   6.999E-10
         9280.,   7.087E-10
         9300.,   6.215E-10
         9320.,   6.068E-10
         9340.,   6.531E-10
         9360.,   6.506E-10
         9380.,   6.856E-10
         9400.,   7.121E-10
         9420.,   6.106E-10
         9440.,   6.015E-10
         9460.,   6.636E-10
         9480.,   6.083E-10
         9500.,   5.405E-10
         9520.,   5.453E-10
         9540.,   5.142E-10
         9560.,   5.946E-10
         9580.,   6.160E-10
         9600.,   6.297E-10
         9620.,   6.120E-10
         9640.,   6.164E-10
         9660.,   6.350E-10
         9680.,   6.858E-10
         9700.,   6.351E-10
         9720.,   6.401E-10
         9740.,   6.335E-10
         9760.,   6.159E-10
         9780.,   6.375E-10
         9800.,   5.955E-10
         9820.,   5.952E-10
         9840.,   6.134E-10
         9860.,   5.873E-10
         9880.,   5.729E-10
         9900.,   5.958E-10
         9920.,   6.109E-10
         9940.,   5.891E-10
         9960.,   5.704E-10
         9980.,   5.532E-10
        10000.,   5.189E-10
        10020.,   4.830E-10
        10040.,   4.933E-10
        10060.,   5.118E-10
        10080.,   5.216E-10
        10100.,   4.747E-10
        10120.,   5.276E-10
        10140.,   5.357E-10
        10160.,   5.485E-10
        10180.,   5.249E-10
        10200.,   5.046E-10
        10220.,   4.806E-10
        10240.,   4.677E-10
        10260.,   4.861E-10
        10280.,   5.345E-10
        10300.,   5.226E-10
        10320.,   4.614E-10
        10340.,   4.710E-10
        10360.,   4.859E-10
        10380.,   4.355E-10
        10400.,   4.547E-10
        10420.,   4.668E-10
        10440.,   4.591E-10
        10460.,   4.853E-10
        10480.,   4.655E-10
        10500.,   4.407E-10
        10520.,   4.341E-10
        10540.,   4.061E-10
        10560.,   4.405E-10
        10580.,   4.014E-10
        10600.,   4.256E-10
        10800.,   3.965E-10
        11000.,   3.697E-10
        11200.,   3.452E-10
        11400.,   3.227E-10
        11600.,   3.022E-10
        11800.,   2.835E-10
        12000.,   2.664E-10
        12200.,   2.509E-10
        12400.,   2.369E-10
        12600.,   2.240E-10
        12800.,   2.122E-10
        13000.,   2.011E-10
        13200.,   1.908E-10
        13400.,   1.811E-10
        13600.,   1.720E-10
        13800.,   1.635E-10
        14000.,   1.555E-10
        14200.,   1.479E-10
        14400.,   1.409E-10
        14600.,   1.342E-10
        14800.,   1.279E-10
        15000.,   1.220E-10
        15200.,   1.164E-10
        15400.,   1.111E-10
        15600.,   1.062E-10
        15800.,   1.015E-10
        16000.,   9.702E-11
        16200.,   9.281E-11
        16400.,   8.883E-11
        16600.,   8.506E-11
        16800.,   8.148E-11
        17000.,   7.809E-11
        17200.,   7.487E-11
        17400.,   7.182E-11
        17600.,   6.892E-11
        17800.,   6.617E-11
        18000.,   6.355E-11
        18200.,   6.105E-11
        18400.,   5.868E-11
        18600.,   5.643E-11
        18800.,   5.428E-11
        19000.,   5.222E-11
        19200.,   5.027E-11
        19400.,   4.840E-11
        19600.,   4.662E-11
        19800.,   4.493E-11
        20000.,   4.331E-11
        20200.,   4.176E-11
        20400.,   4.027E-11
        20600.,   3.886E-11
        20800.,   3.750E-11
        21000.,   3.621E-11
        21200.,   3.497E-11
        21400.,   3.378E-11
        21600.,   3.264E-11
        21800.,   3.155E-11
        22000.,   3.050E-11
        22200.,   2.950E-11
        22400.,   2.854E-11
        22600.,   2.761E-11
        22800.,   2.673E-11
        23000.,   2.588E-11
        23200.,   2.506E-11
        23400.,   2.427E-11
        23600.,   2.352E-11
        23800.,   2.279E-11
        24000.,   2.209E-11
        24200.,   2.142E-11
        24400.,   2.077E-11
        24600.,   2.015E-11
        24800.,   1.955E-11
        25000.,   1.898E-11
        25200.,   1.842E-11
        25400.,   1.788E-11
        25600.,   1.737E-11
