wavelength, flux
          229.,          0.
          234.,          0.
          243.,          0.
          252.,          0.
          256.,          0.
          260.,          0.
          266.,          0.
          275.,          0.
          283.,          0.
          293.,          0.
          301.,          0.
          309.,          0.
          325.,          0.
          342.,          0.
          351.,          0.
          356.,          0.
          365.,          0.
          375.,          0.
          384.,          0.
          400.,          0.
          415.,          0.
          425.,          0.
          445.,          0.
          472.,          0.
          494.,          0.
          506.,   1.156E-18
          516.,   2.019E-18
          540.,   6.382E-18
          564.,   1.829E-17
          587.,   4.481E-17
          612.,   1.130E-16
          640.,   2.892E-16
          671.,   7.431E-16
          705.,   1.911E-15
          736.,   4.192E-15
          770.,   9.254E-15
          810.,   2.157E-14
          850.,   4.655E-14
          890.,   9.413E-14
          920.,   4.206E-12
          940.,   2.596E-11
          962.,   2.723E-10
          987.,    2.167E-9
         1012.,    2.019E-9
         1037.,    2.162E-9
         1062.,    5.242E-9
         1087.,    5.046E-9
         1112.,    1.213E-8
         1120.,    1.290E-8
         1140.,    1.342E-8
         1160.,    1.389E-8
         1180.,    1.065E-8
         1200.,    4.563E-9
         1220.,   6.875E-10
         1240.,    9.160E-9
         1260.,    1.462E-8
         1280.,    2.008E-8
         1300.,    1.666E-8
         1320.,    2.098E-8
         1340.,    2.209E-8
         1360.,    2.202E-8
         1380.,    2.112E-8
         1400.,    2.174E-8
         1420.,    2.133E-8
         1440.,    2.174E-8
         1460.,    2.392E-8
         1480.,    2.233E-8
         1500.,    2.340E-8
         1520.,    2.336E-8
         1540.,    2.323E-8
         1560.,    2.247E-8
         1580.,    2.116E-8
         1600.,    2.019E-8
         1620.,    1.860E-8
         1640.,    1.784E-8
         1660.,    1.749E-8
         1680.,    1.759E-8
         1700.,    1.766E-8
         1720.,    1.652E-8
         1740.,    1.652E-8
         1760.,    1.683E-8
         1780.,    1.673E-8
         1800.,    1.592E-8
         1820.,    1.511E-8
         1840.,    1.455E-8
         1860.,    1.511E-8
         1880.,    1.417E-8
         1900.,    1.383E-8
         1920.,    1.403E-8
         1940.,    1.355E-8
         1960.,    1.327E-8
         1980.,    1.255E-8
         2000.,    1.199E-8
         2002.,    1.200E-8
         2005.,    1.200E-8
         2008.,    1.201E-8
         2010.,    1.201E-8
         2012.,    1.202E-8
         2015.,    1.202E-8
         2018.,    1.203E-8
         2020.,    1.203E-8
         2022.,    1.197E-8
         2025.,    1.191E-8
         2027.,    1.185E-8
         2030.,    1.179E-8
         2032.,    1.173E-8
         2035.,    1.167E-8
         2038.,    1.161E-8
         2040.,    1.155E-8
         2042.,    1.151E-8
         2045.,    1.147E-8
         2048.,    1.143E-8
         2050.,    1.139E-8
         2052.,    1.135E-8
         2055.,    1.131E-8
         2058.,    1.127E-8
         2060.,    1.123E-8
         2062.,    1.116E-8
         2065.,    1.108E-8
         2067.,    1.100E-8
         2070.,    1.092E-8
         2072.,    1.085E-8
         2075.,    1.077E-8
         2077.,    1.069E-8
         2080.,    1.061E-8
         2082.,    1.067E-8
         2085.,    1.072E-8
         2088.,    1.078E-8
         2090.,    1.084E-8
         2092.,    1.089E-8
         2095.,    1.095E-8
         2098.,    1.101E-8
         2100.,    1.106E-8
         2102.,    1.101E-8
         2105.,    1.096E-8
         2107.,    1.090E-8
         2110.,    1.085E-8
         2112.,    1.080E-8
         2115.,    1.075E-8
         2118.,    1.070E-8
         2120.,    1.064E-8
         2122.,    1.060E-8
         2125.,    1.056E-8
         2128.,    1.051E-8
         2130.,    1.047E-8
         2133.,    1.043E-8
         2135.,    1.039E-8
         2138.,    1.034E-8
         2140.,    1.030E-8
         2142.,    1.031E-8
         2145.,    1.032E-8
         2147.,    1.033E-8
         2150.,    1.034E-8
         2153.,    1.034E-8
         2155.,    1.035E-8
         2157.,    1.036E-8
         2160.,    1.037E-8
         2162.,    1.035E-8
         2165.,    1.033E-8
         2168.,    1.030E-8
         2170.,    1.028E-8
         2173.,    1.026E-8
         2175.,    1.024E-8
         2177.,    1.022E-8
         2180.,    1.019E-8
         2182.,    1.018E-8
         2185.,    1.016E-8
         2187.,    1.014E-8
         2190.,    1.013E-8
         2193.,    1.011E-8
         2195.,    1.009E-8
         2198.,    1.008E-8
         2200.,    1.006E-8
         2202.,    1.002E-8
         2205.,    9.981E-9
         2208.,    9.941E-9
         2210.,    9.902E-9
         2213.,    9.862E-9
         2215.,    9.823E-9
         2218.,    9.784E-9
         2220.,    9.745E-9
         2222.,    9.710E-9
         2225.,    9.675E-9
         2227.,    9.641E-9
         2230.,    9.606E-9
         2233.,    9.572E-9
         2235.,    9.537E-9
         2237.,    9.503E-9
         2240.,    9.468E-9
         2242.,    9.421E-9
         2245.,    9.374E-9
         2248.,    9.327E-9
         2250.,    9.280E-9
         2253.,    9.233E-9
         2255.,    9.186E-9
         2257.,    9.138E-9
         2260.,    9.091E-9
         2262.,    9.087E-9
         2265.,    9.083E-9
         2267.,    9.078E-9
         2270.,    9.074E-9
         2273.,    9.070E-9
         2275.,    9.065E-9
         2277.,    9.061E-9
         2280.,    9.057E-9
         2282.,    9.074E-9
         2285.,    9.090E-9
         2288.,    9.107E-9
         2290.,    9.124E-9
         2293.,    9.141E-9
         2295.,    9.158E-9
         2298.,    9.175E-9
         2300.,    9.191E-9
         2302.,    9.109E-9
         2305.,    9.027E-9
         2307.,    8.945E-9
         2310.,    8.863E-9
         2313.,    8.781E-9
         2315.,    8.699E-9
         2317.,    8.617E-9
         2320.,    8.535E-9
         2322.,    8.514E-9
         2325.,    8.492E-9
         2327.,    8.471E-9
         2330.,    8.450E-9
         2333.,    8.429E-9
         2335.,    8.408E-9
         2337.,    8.387E-9
         2340.,    8.365E-9
         2342.,    8.361E-9
         2345.,    8.357E-9
         2347.,    8.352E-9
         2350.,    8.348E-9
         2353.,    8.344E-9
         2355.,    8.340E-9
         2357.,    8.335E-9
         2360.,    8.331E-9
         2362.,    8.296E-9
         2365.,    8.261E-9
         2368.,    8.226E-9
         2370.,    8.191E-9
         2373.,    8.156E-9
         2375.,    8.121E-9
         2377.,    8.086E-9
         2380.,    8.051E-9
         2383.,    8.030E-9
         2385.,    8.008E-9
         2387.,    7.987E-9
         2390.,    7.966E-9
         2393.,    7.945E-9
         2395.,    7.924E-9
         2397.,    7.903E-9
         2400.,    7.882E-9
         2403.,    7.898E-9
         2405.,    7.915E-9
         2407.,    7.932E-9
         2410.,    7.949E-9
         2413.,    7.966E-9
         2415.,    7.983E-9
         2417.,    7.999E-9
         2420.,    8.016E-9
         2423.,    8.046E-9
         2425.,    8.077E-9
         2427.,    8.107E-9
         2430.,    8.137E-9
         2433.,    8.167E-9
         2435.,    8.198E-9
         2437.,    8.228E-9
         2440.,    8.258E-9
         2443.,    8.258E-9
         2445.,    8.258E-9
         2448.,    8.258E-9
         2450.,    8.258E-9
         2452.,    8.258E-9
         2455.,    8.258E-9
         2457.,    8.258E-9
         2460.,    8.258E-9
         2463.,    8.254E-9
         2465.,    8.249E-9
         2467.,    8.245E-9
         2470.,    8.241E-9
         2473.,    8.237E-9
         2475.,    8.232E-9
         2477.,    8.228E-9
         2480.,    8.224E-9
         2483.,    8.250E-9
         2485.,    8.276E-9
         2487.,    8.303E-9
         2490.,    8.329E-9
         2493.,    8.355E-9
         2495.,    8.382E-9
         2497.,    8.408E-9
         2500.,    8.434E-9
         2502.,    8.422E-9
         2505.,    8.408E-9
         2507.,    8.396E-9
         2510.,    8.383E-9
         2513.,    8.370E-9
         2515.,    8.357E-9
         2518.,    8.344E-9
         2520.,    8.331E-9
         2522.,    8.214E-9
         2525.,    8.097E-9
         2527.,    7.981E-9
         2530.,    7.864E-9
         2532.,    7.747E-9
         2535.,    7.631E-9
         2538.,    7.514E-9
         2540.,    7.398E-9
         2542.,    7.419E-9
         2545.,    7.440E-9
         2548.,    7.461E-9
         2550.,    7.482E-9
         2552.,    7.503E-9
         2555.,    7.524E-9
         2558.,    7.546E-9
         2560.,    7.567E-9
         2562.,    7.641E-9
         2565.,    7.714E-9
         2567.,    7.789E-9
         2570.,    7.863E-9
         2573.,    7.936E-9
         2575.,    8.010E-9
         2577.,    8.084E-9
         2580.,    8.158E-9
         2582.,    8.102E-9
         2585.,    8.046E-9
         2587.,    7.989E-9
         2590.,    7.933E-9
         2593.,    7.877E-9
         2595.,    7.821E-9
         2598.,    7.765E-9
         2600.,    7.709E-9
         2602.,    7.696E-9
         2605.,    7.683E-9
         2607.,    7.670E-9
         2610.,    7.657E-9
         2612.,    7.644E-9
         2615.,    7.631E-9
         2618.,    7.618E-9
         2620.,    7.605E-9
         2622.,    7.648E-9
         2625.,    7.691E-9
         2627.,    7.735E-9
         2630.,    7.778E-9
         2633.,    7.821E-9
         2635.,    7.864E-9
         2638.,    7.907E-9
         2640.,    7.950E-9
         2642.,    7.894E-9
         2645.,    7.837E-9
         2647.,    7.781E-9
         2650.,    7.724E-9
         2652.,    7.667E-9
         2655.,    7.611E-9
         2657.,    7.554E-9
         2660.,    7.498E-9
         2662.,    7.515E-9
         2665.,    7.533E-9
         2667.,    7.551E-9
         2670.,    7.569E-9
         2673.,    7.586E-9
         2675.,    7.604E-9
         2677.,    7.622E-9
         2680.,    7.639E-9
         2682.,    7.613E-9
         2685.,    7.588E-9
         2687.,    7.562E-9
         2690.,    7.536E-9
         2692.,    7.510E-9
         2695.,    7.484E-9
         2698.,    7.458E-9
         2700.,    7.432E-9
         2702.,    7.467E-9
         2705.,    7.501E-9
         2707.,    7.536E-9
         2710.,    7.570E-9
         2713.,    7.605E-9
         2715.,    7.639E-9
         2718.,    7.674E-9
         2720.,    7.709E-9
         2722.,    7.670E-9
         2725.,    7.631E-9
         2727.,    7.592E-9
         2730.,    7.553E-9
         2732.,    7.514E-9
         2735.,    7.475E-9
         2737.,    7.436E-9
         2740.,    7.398E-9
         2742.,    7.367E-9
         2745.,    7.337E-9
         2747.,    7.307E-9
         2750.,    7.277E-9
         2753.,    7.246E-9
         2755.,    7.216E-9
         2758.,    7.186E-9
         2760.,    7.155E-9
         2762.,    7.142E-9
         2765.,    7.129E-9
         2767.,    7.115E-9
         2770.,    7.102E-9
         2772.,    7.089E-9
         2775.,    7.075E-9
         2778.,    7.062E-9
         2780.,    7.048E-9
         2782.,    7.014E-9
         2785.,    6.979E-9
         2787.,    6.945E-9
         2790.,    6.910E-9
         2793.,    6.875E-9
         2795.,    6.841E-9
         2798.,    6.806E-9
         2800.,    6.772E-9
         2802.,    6.816E-9
         2805.,    6.859E-9
         2807.,    6.903E-9
         2810.,    6.946E-9
         2812.,    6.990E-9
         2815.,    7.034E-9
         2817.,    7.077E-9
         2820.,    7.121E-9
         2823.,    7.099E-9
         2825.,    7.078E-9
         2827.,    7.056E-9
         2830.,    7.034E-9
         2833.,    7.013E-9
         2835.,    6.991E-9
         2838.,    6.970E-9
         2840.,    6.948E-9
         2842.,    6.926E-9
         2845.,    6.904E-9
         2847.,    6.882E-9
         2850.,    6.860E-9
         2852.,    6.838E-9
         2855.,    6.816E-9
         2858.,    6.794E-9
         2860.,    6.772E-9
         2862.,    6.811E-9
         2865.,    6.849E-9
         2867.,    6.888E-9
         2870.,    6.928E-9
         2873.,    6.966E-9
         2875.,    7.005E-9
         2878.,    7.044E-9
         2880.,    7.083E-9
         2883.,    7.101E-9
         2885.,    7.118E-9
         2887.,    7.136E-9
         2890.,    7.154E-9
         2892.,    7.171E-9
         2895.,    7.189E-9
         2898.,    7.207E-9
         2900.,    7.225E-9
         2903.,    7.177E-9
         2905.,    7.129E-9
         2907.,    7.081E-9
         2910.,    7.033E-9
         2913.,    6.985E-9
         2915.,    6.937E-9
         2918.,    6.889E-9
         2920.,    6.841E-9
         2923.,    6.828E-9
         2925.,    6.816E-9
         2927.,    6.803E-9
         2930.,    6.791E-9
         2932.,    6.778E-9
         2935.,    6.766E-9
         2938.,    6.753E-9
         2940.,    6.741E-9
         2942.,    6.714E-9
         2945.,    6.688E-9
         2948.,    6.662E-9
         2950.,    6.635E-9
         2952.,    6.609E-9
         2955.,    6.583E-9
         2958.,    6.556E-9
         2960.,    6.530E-9
         2963.,    6.508E-9
         2965.,    6.487E-9
         2967.,    6.466E-9
         2970.,    6.445E-9
         2972.,    6.424E-9
         2975.,    6.403E-9
         2978.,    6.382E-9
         2980.,    6.360E-9
         2983.,    6.368E-9
         2985.,    6.377E-9
         2987.,    6.385E-9
         2990.,    6.393E-9
         2993.,    6.402E-9
         2995.,    6.410E-9
         2998.,    6.418E-9
         3000.,    6.426E-9
         3003.,    6.422E-9
         3005.,    6.418E-9
         3007.,    6.414E-9
         3010.,    6.410E-9
         3012.,    6.407E-9
         3015.,    6.403E-9
         3018.,    6.399E-9
         3020.,    6.395E-9
         3023.,    6.395E-9
         3025.,    6.395E-9
         3027.,    6.395E-9
         3030.,    6.395E-9
         3032.,    6.395E-9
         3035.,    6.395E-9
         3038.,    6.395E-9
         3040.,    6.395E-9
         3043.,    6.404E-9
         3045.,    6.412E-9
         3048.,    6.421E-9
         3050.,    6.430E-9
         3052.,    6.438E-9
         3055.,    6.447E-9
         3058.,    6.456E-9
         3060.,    6.464E-9
         3063.,    6.464E-9
         3065.,    6.464E-9
         3067.,    6.464E-9
         3070.,    6.464E-9
         3073.,    6.464E-9
         3075.,    6.464E-9
         3077.,    6.464E-9
         3080.,    6.464E-9
         3083.,    6.477E-9
         3085.,    6.489E-9
         3087.,    6.502E-9
         3090.,    6.514E-9
         3092.,    6.527E-9
         3095.,    6.539E-9
         3098.,    6.552E-9
         3100.,    6.564E-9
         3103.,    6.517E-9
         3105.,    6.469E-9
         3107.,    6.422E-9
         3110.,    6.374E-9
         3112.,    6.327E-9
         3115.,    6.279E-9
         3118.,    6.232E-9
         3120.,    6.184E-9
         3123.,    6.171E-9
         3125.,    6.158E-9
         3127.,    6.145E-9
         3130.,    6.132E-9
         3132.,    6.119E-9
         3135.,    6.106E-9
         3138.,    6.093E-9
         3140.,    6.080E-9
         3143.,    6.106E-9
         3145.,    6.132E-9
         3147.,    6.158E-9
         3150.,    6.184E-9
         3152.,    6.210E-9
         3155.,    6.236E-9
         3157.,    6.262E-9
         3160.,    6.288E-9
         3163.,    6.305E-9
         3165.,    6.322E-9
         3167.,    6.340E-9
         3170.,    6.357E-9
         3173.,    6.374E-9
         3175.,    6.391E-9
         3177.,    6.409E-9
         3180.,    6.426E-9
         3183.,    6.409E-9
         3185.,    6.391E-9
         3187.,    6.374E-9
         3190.,    6.357E-9
         3192.,    6.340E-9
         3195.,    6.322E-9
         3198.,    6.305E-9
         3200.,    6.288E-9
         3202.,    6.262E-9
         3205.,    6.236E-9
         3208.,    6.210E-9
         3210.,    6.184E-9
         3212.,    6.158E-9
         3215.,    6.132E-9
         3217.,    6.106E-9
         3220.,    6.080E-9
         3223.,    6.055E-9
         3225.,    6.029E-9
         3227.,    6.004E-9
         3230.,    5.979E-9
         3233.,    5.953E-9
         3235.,    5.928E-9
         3237.,    5.902E-9
         3240.,    5.876E-9
         3260.,    6.245E-9
         3270.,    6.021E-9
         3280.,    5.966E-9
         3290.,    5.741E-9
         3300.,    5.872E-9
         3310.,    5.754E-9
         3320.,    5.862E-9
         3330.,    5.825E-9
         3340.,    5.722E-9
         3350.,    5.666E-9
         3360.,    5.776E-9
         3370.,    5.664E-9
         3380.,    5.672E-9
         3390.,    5.591E-9
         3400.,    5.584E-9
         3410.,    5.526E-9
         3420.,    5.558E-9
         3430.,    5.509E-9
         3440.,    5.429E-9
         3450.,    5.508E-9
         3460.,    5.474E-9
         3470.,    5.436E-9
         3480.,    5.439E-9
         3490.,    5.354E-9
         3500.,    5.435E-9
         3510.,    5.452E-9
         3520.,    5.441E-9
         3530.,    5.462E-9
         3540.,    5.353E-9
         3550.,    5.401E-9
         3560.,    5.238E-9
         3570.,    5.288E-9
         3580.,    5.277E-9
         3590.,    5.302E-9
         3600.,    5.282E-9
         3610.,    5.089E-9
         3620.,    5.037E-9
         3630.,    5.012E-9
         3640.,    4.916E-9
         3650.,    4.890E-9
         3660.,    4.750E-9
         3670.,    4.718E-9
         3680.,    4.746E-9
         3690.,    4.743E-9
         3700.,    4.904E-9
         3710.,    5.165E-9
         3720.,    5.420E-9
         3730.,    5.666E-9
         3740.,    6.487E-9
         3750.,    6.833E-9
         3760.,    7.282E-9
         3770.,    7.019E-9
         3780.,    7.732E-9
         3790.,    8.131E-9
         3800.,    7.104E-9
         3810.,    8.377E-9
         3820.,    9.245E-9
         3830.,    7.442E-9
         3840.,    6.930E-9
         3850.,    8.718E-9
         3860.,    9.479E-9
         3870.,    9.386E-9
         3880.,    8.280E-9
         3890.,    6.680E-9
         3900.,    7.722E-9
         3910.,    9.430E-9
         3920.,    9.645E-9
         3930.,    9.730E-9
         3940.,    9.758E-9
         3950.,    9.800E-9
         3960.,    8.645E-9
         3970.,    6.820E-9
         3980.,    7.814E-9
         3990.,    9.707E-9
         4000.,    9.822E-9
         4010.,    9.610E-9
         4020.,    9.306E-9
         4030.,    9.226E-9
         4040.,    9.221E-9
         4050.,    9.275E-9
         4060.,    9.216E-9
         4070.,    9.132E-9
         4080.,    8.976E-9
         4090.,    8.195E-9
         4100.,    6.481E-9
         4110.,    6.992E-9
         4120.,    8.686E-9
         4130.,    8.798E-9
         4140.,    8.654E-9
         4150.,    8.542E-9
         4160.,    8.476E-9
         4170.,    8.379E-9
         4180.,    8.333E-9
         4190.,    8.268E-9
         4200.,    8.254E-9
         4210.,    8.208E-9
         4220.,    8.231E-9
         4230.,    8.137E-9
         4240.,    8.111E-9
         4250.,    8.079E-9
         4260.,    7.981E-9
         4270.,    7.871E-9
         4280.,    7.763E-9
         4290.,    7.709E-9
         4300.,    7.692E-9
         4310.,    7.632E-9
         4320.,    7.591E-9
         4330.,    6.655E-9
         4340.,    5.420E-9
         4350.,    6.155E-9
         4360.,    7.281E-9
         4370.,    7.372E-9
         4380.,    7.163E-9
         4390.,    7.046E-9
         4400.,    7.030E-9
         4410.,    6.987E-9
         4420.,    6.928E-9
         4430.,    6.852E-9
         4440.,    6.810E-9
         4450.,    6.796E-9
         4460.,    6.782E-9
         4470.,    6.604E-9
         4480.,    6.493E-9
         4490.,    6.568E-9
         4500.,    6.592E-9
         4510.,    6.530E-9
         4520.,    6.470E-9
         4530.,    6.510E-9
         4540.,    6.455E-9
         4550.,    6.359E-9
         4560.,    6.362E-9
         4570.,    6.355E-9
         4580.,    6.270E-9
         4590.,    6.232E-9
         4600.,    6.226E-9
         4610.,    6.204E-9
         4620.,    6.172E-9
         4630.,    6.110E-9
         4640.,    6.104E-9
         4650.,    6.053E-9
         4660.,    6.022E-9
         4670.,    6.011E-9
         4680.,    5.975E-9
         4690.,    5.969E-9
         4700.,    5.905E-9
         4710.,    5.879E-9
         4720.,    5.860E-9
         4730.,    5.840E-9
         4740.,    5.815E-9
         4750.,    5.771E-9
         4760.,    5.713E-9
         4770.,    5.685E-9
         4780.,    5.713E-9
         4790.,    5.647E-9
         4800.,    5.614E-9
         4810.,    5.581E-9
         4820.,    5.502E-9
         4830.,    5.460E-9
         4840.,    5.345E-9
         4850.,    4.812E-9
         4860.,    4.063E-9
         4870.,    4.496E-9
         4880.,    5.280E-9
         4890.,    5.254E-9
         4900.,    5.242E-9
         4910.,    5.184E-9
         4920.,    5.055E-9
         4930.,    5.039E-9
         4940.,    5.036E-9
         4950.,    5.007E-9
         4960.,    4.947E-9
         4970.,    4.958E-9
         4980.,    4.934E-9
         4990.,    4.893E-9
         5000.,    4.851E-9
         5010.,    4.780E-9
         5020.,    4.726E-9
         5030.,    4.703E-9
         5040.,    4.654E-9
         5050.,    4.516E-9
         5060.,    4.502E-9
         5070.,    4.510E-9
         5080.,    4.539E-9
         5090.,    4.513E-9
         5100.,    4.428E-9
         5110.,    4.440E-9
         5120.,    4.422E-9
         5130.,    4.413E-9
         5140.,    4.396E-9
         5150.,    4.383E-9
         5160.,    4.342E-9
         5170.,    4.333E-9
         5180.,    4.284E-9
         5190.,    4.251E-9
         5200.,    4.267E-9
         5210.,    4.219E-9
         5220.,    4.183E-9
         5230.,    4.130E-9
         5240.,    4.103E-9
         5250.,    4.087E-9
         5260.,    4.064E-9
         5270.,    4.048E-9
         5280.,    4.014E-9
         5290.,    4.010E-9
         5300.,    3.960E-9
         5310.,    3.941E-9
         5320.,    3.876E-9
         5330.,    3.866E-9
         5340.,    3.859E-9
         5350.,    3.844E-9
         5360.,    3.815E-9
         5370.,    3.873E-9
         5380.,    3.847E-9
         5390.,    3.825E-9
         5400.,    3.804E-9
         5410.,    3.764E-9
         5420.,    3.865E-9
         5430.,    3.817E-9
         5440.,    3.814E-9
         5450.,    3.756E-9
         5460.,    3.746E-9
         5470.,    3.692E-9
         5480.,    3.672E-9
         5490.,    3.654E-9
         5500.,    3.645E-9
         5510.,    3.632E-9
         5520.,    3.604E-9
         5530.,    3.613E-9
         5540.,    3.585E-9
         5550.,    3.569E-9
         5560.,    3.538E-9
         5570.,    3.533E-9
         5580.,    3.524E-9
         5590.,    3.507E-9
         5600.,    3.502E-9
         5610.,    3.461E-9
         5620.,    3.425E-9
         5630.,    3.414E-9
         5640.,    3.367E-9
         5650.,    3.354E-9
         5660.,    3.356E-9
         5670.,    3.330E-9
         5680.,    3.335E-9
         5690.,    3.326E-9
         5700.,    3.289E-9
         5710.,    3.249E-9
         5720.,    3.223E-9
         5730.,    3.220E-9
         5740.,    3.201E-9
         5760.,    3.163E-9
         5780.,    3.123E-9
         5800.,    3.084E-9
         5820.,    3.045E-9
         5840.,    3.007E-9
         5860.,    2.969E-9
         5880.,    2.931E-9
         5900.,    2.895E-9
         5920.,    2.858E-9
         5940.,    2.822E-9
         5960.,    2.786E-9
         5980.,    2.750E-9
         6000.,    2.729E-9
         6020.,    2.685E-9
         6040.,    2.627E-9
         6060.,    2.611E-9
         6080.,    2.609E-9
         6100.,    2.630E-9
         6120.,    2.596E-9
         6140.,    2.546E-9
         6160.,    2.504E-9
         6180.,    2.474E-9
         6200.,    2.458E-9
         6220.,    2.437E-9
         6240.,    2.431E-9
         6260.,    2.368E-9
         6280.,    2.348E-9
         6300.,    2.326E-9
         6320.,    2.328E-9
         6340.,    2.290E-9
         6360.,    2.258E-9
         6380.,    2.248E-9
         6400.,    2.222E-9
         6420.,    2.190E-9
         6440.,    2.183E-9
         6460.,    2.153E-9
         6480.,    2.154E-9
         6500.,    2.114E-9
         6520.,    2.099E-9
         6540.,    2.040E-9
         6560.,    1.956E-9
         6580.,    1.968E-9
         6600.,    2.031E-9
         6620.,    2.000E-9
         6640.,    1.980E-9
         6660.,    1.951E-9
         6680.,    1.929E-9
         6700.,    1.927E-9
         6720.,    1.925E-9
         6740.,    1.892E-9
         6760.,    1.874E-9
         6780.,    1.859E-9
         6800.,    1.870E-9
         6820.,    1.844E-9
         6840.,    1.890E-9
         6860.,    1.779E-9
         6880.,    1.709E-9
         6900.,    1.724E-9
         6920.,    1.735E-9
         6940.,    1.729E-9
         6960.,    1.694E-9
         6980.,    1.684E-9
         7000.,    1.667E-9
         7020.,    1.668E-9
         7040.,    1.653E-9
         7060.,    1.640E-9
         7080.,    1.630E-9
         7100.,    1.626E-9
         7120.,    1.606E-9
         7140.,    1.589E-9
         7160.,    1.611E-9
         7180.,    1.613E-9
         7200.,    1.545E-9
         7220.,    1.523E-9
         7240.,    1.515E-9
         7260.,    1.487E-9
         7280.,    1.484E-9
         7300.,    1.465E-9
         7320.,    1.464E-9
         7340.,    1.432E-9
         7360.,    1.437E-9
         7380.,    1.429E-9
         7400.,    1.432E-9
         7420.,    1.407E-9
         7440.,    1.397E-9
         7460.,    1.384E-9
         7480.,    1.346E-9
         7500.,    1.333E-9
         7520.,    1.319E-9
         7540.,    1.297E-9
         7560.,    1.268E-9
         7580.,    1.300E-9
         7600.,    1.131E-9
         7620.,    1.092E-9
         7640.,    1.188E-9
         7660.,    1.241E-9
         7680.,    1.190E-9
         7700.,    1.243E-9
         7720.,    1.245E-9
         7740.,    1.216E-9
         7760.,    1.198E-9
         7780.,    1.202E-9
         7800.,    1.214E-9
         7820.,    1.195E-9
         7840.,    1.179E-9
         7860.,    1.169E-9
         7880.,    1.165E-9
         7900.,    1.139E-9
         7920.,    1.118E-9
         7940.,    1.118E-9
         7960.,    1.135E-9
         7980.,    1.094E-9
         8000.,    1.097E-9
         8020.,    1.081E-9
         8040.,    1.080E-9
         8060.,    1.080E-9
         8080.,    1.060E-9
         8100.,    1.068E-9
         8120.,    1.062E-9
         8140.,    1.052E-9
         8160.,    1.036E-9
         8180.,    1.021E-9
         8200.,    1.032E-9
         8220.,    1.035E-9
         8240.,   9.917E-10
         8260.,    1.028E-9
         8280.,    1.001E-9
         8300.,    1.016E-9
         8320.,   9.647E-10
         8340.,   9.619E-10
         8360.,   9.751E-10
         8380.,   9.669E-10
         8400.,   9.802E-10
         8420.,   9.842E-10
         8440.,   9.768E-10
         8460.,   9.319E-10
         8480.,   9.837E-10
         8500.,   9.597E-10
         8520.,   9.525E-10
         8540.,   9.587E-10
         8560.,   9.283E-10
         8580.,   9.497E-10
         8600.,   9.021E-10
         8620.,   9.879E-10
         8640.,   9.683E-10
         8660.,   8.701E-10
         8680.,   9.016E-10
         8700.,   9.647E-10
         8720.,   9.866E-10
         8740.,   8.382E-10
         8760.,   8.274E-10
         8780.,   9.462E-10
         8800.,   9.286E-10
         8820.,   9.498E-10
         8840.,   8.672E-10
         8860.,   8.098E-10
         8880.,   8.358E-10
         8900.,   8.969E-10
         8920.,   8.999E-10
         8940.,   9.112E-10
         8960.,   9.022E-10
         8980.,   8.501E-10
         9000.,   7.602E-10
         9020.,   7.535E-10
         9040.,   8.534E-10
         9060.,   8.754E-10
         9080.,   8.187E-10
         9100.,   8.353E-10
         9120.,   8.141E-10
         9140.,   8.076E-10
         9160.,   7.993E-10
         9180.,   8.007E-10
         9200.,   7.879E-10
         9220.,   7.143E-10
         9240.,   6.898E-10
         9260.,   7.392E-10
         9280.,   7.631E-10
         9300.,   7.401E-10
         9320.,   7.259E-10
         9340.,   7.488E-10
         9360.,   6.882E-10
         9380.,   7.319E-10
         9400.,   8.039E-10
         9420.,   7.499E-10
         9440.,   6.743E-10
         9460.,   7.088E-10
         9480.,   7.256E-10
         9500.,   6.938E-10
         9520.,   6.905E-10
         9540.,   6.026E-10
         9560.,   6.278E-10
         9580.,   6.944E-10
         9600.,   6.594E-10
         9620.,   6.906E-10
         9640.,   6.476E-10
         9660.,   6.934E-10
         9680.,   6.826E-10
         9700.,   6.782E-10
         9720.,   6.674E-10
         9740.,   6.816E-10
         9760.,   6.491E-10
         9780.,   6.713E-10
         9800.,   6.488E-10
         9820.,   6.797E-10
         9840.,   6.301E-10
         9860.,   6.402E-10
         9880.,   6.579E-10
         9900.,   6.565E-10
         9920.,   6.413E-10
         9940.,   6.336E-10
         9960.,   6.288E-10
         9980.,   6.278E-10
        10000.,   6.353E-10
        10020.,   5.996E-10
        10040.,   5.203E-10
        10060.,   5.414E-10
        10080.,   5.963E-10
        10100.,   6.101E-10
        10120.,   5.887E-10
        10140.,   5.742E-10
        10160.,   5.922E-10
        10180.,   5.540E-10
        10200.,   5.567E-10
        10220.,   5.652E-10
        10240.,   5.446E-10
        10260.,   5.794E-10
        10280.,   5.406E-10
        10300.,   5.360E-10
        10320.,   5.415E-10
        10340.,   5.448E-10
        10360.,   5.482E-10
        10380.,   5.510E-10
        10400.,   5.403E-10
        10420.,   5.181E-10
        10440.,   5.365E-10
        10460.,   5.262E-10
        10480.,   5.215E-10
        10500.,   5.063E-10
        10520.,   4.982E-10
        10540.,   4.820E-10
        10560.,   5.091E-10
        10580.,   4.902E-10
        10600.,   4.935E-10
        10800.,   4.592E-10
        11000.,   4.259E-10
        11200.,   3.942E-10
        11400.,   3.646E-10
        11600.,   3.374E-10
        11800.,   3.128E-10
        12000.,   2.909E-10
        12200.,   2.718E-10
        12400.,   2.554E-10
        12600.,   2.417E-10
        12800.,   2.291E-10
        13000.,   2.173E-10
        13200.,   2.063E-10
        13400.,   1.960E-10
        13600.,   1.862E-10
        13800.,   1.771E-10
        14000.,   1.685E-10
        14200.,   1.605E-10
        14400.,   1.529E-10
        14600.,   1.457E-10
        14800.,   1.390E-10
        15000.,   1.326E-10
        15200.,   1.266E-10
        15400.,   1.209E-10
        15600.,   1.156E-10
        15800.,   1.105E-10
        16000.,   1.057E-10
        16200.,   1.012E-10
        16400.,   9.686E-11
        16600.,   9.279E-11
        16800.,   8.892E-11
        17000.,   8.525E-11
        17200.,   8.177E-11
        17400.,   7.847E-11
        17600.,   7.532E-11
        17800.,   7.234E-11
        18000.,   6.949E-11
        18200.,   6.679E-11
        18400.,   6.422E-11
        18600.,   6.177E-11
        18800.,   5.943E-11
        19000.,   5.720E-11
        19200.,   5.508E-11
        19400.,   5.305E-11
        19600.,   5.111E-11
        19800.,   4.926E-11
        20000.,   4.750E-11
        20200.,   4.582E-11
        20400.,   4.420E-11
        20600.,   4.265E-11
        20800.,   4.118E-11
        21000.,   3.976E-11
        21200.,   3.841E-11
        21400.,   3.711E-11
        21600.,   3.587E-11
        21800.,   3.468E-11
        22000.,   3.354E-11
        22200.,   3.244E-11
        22400.,   3.139E-11
        22600.,   3.038E-11
        22800.,   2.941E-11
        23000.,   2.848E-11
        23200.,   2.758E-11
        23400.,   2.672E-11
        23600.,   2.590E-11
        23800.,   2.510E-11
        24000.,   2.434E-11
        24200.,   2.360E-11
        24400.,   2.289E-11
        24600.,   2.221E-11
        24800.,   2.155E-11
        25000.,   2.092E-11
        25200.,   2.031E-11
        25400.,   1.972E-11
        25600.,   1.916E-11
