wavelength, flux
          229.,          0.
          234.,          0.
          243.,          0.
          252.,          0.
          256.,          0.
          260.,          0.
          266.,          0.
          275.,          0.
          283.,          0.
          293.,          0.
          301.,          0.
          309.,          0.
          325.,          0.
          342.,          0.
          351.,          0.
          356.,          0.
          365.,          0.
          375.,          0.
          384.,          0.
          400.,          0.
          415.,          0.
          425.,          0.
          445.,          0.
          472.,          0.
          494.,          0.
          506.,   1.092E-21
          516.,   2.150E-21
          540.,   9.565E-21
          564.,   3.759E-20
          587.,   1.266E-19
          612.,   4.304E-19
          640.,   1.511E-18
          671.,   5.414E-18
          705.,   1.923E-17
          736.,   5.502E-17
          770.,   1.575E-16
          810.,   4.813E-16
          850.,   1.315E-15
          890.,   3.256E-15
          920.,   1.609E-13
          940.,   7.357E-13
          962.,   1.521E-12
          987.,   6.704E-12
         1012.,   6.792E-12
         1037.,   7.825E-12
         1062.,   2.555E-11
         1087.,   3.085E-11
         1112.,    2.215E-9
         1120.,    2.339E-9
         1140.,    2.334E-9
         1160.,    2.352E-9
         1180.,    1.495E-9
         1200.,   5.323E-10
         1220.,   1.875E-10
         1240.,    1.370E-9
         1260.,    3.251E-9
         1280.,    5.040E-9
         1300.,    5.269E-9
         1320.,    5.394E-9
         1340.,    6.044E-9
         1360.,    6.125E-9
         1380.,    5.943E-9
         1400.,    7.213E-9
         1420.,    7.791E-9
         1440.,    7.772E-9
         1460.,    8.513E-9
         1480.,    7.527E-9
         1500.,    9.244E-9
         1520.,    8.411E-9
         1540.,    8.849E-9
         1560.,    8.553E-9
         1580.,    8.939E-9
         1600.,    8.299E-9
         1620.,    7.730E-9
         1640.,    7.213E-9
         1660.,    7.213E-9
         1680.,    7.405E-9
         1700.,    7.425E-9
         1720.,    7.040E-9
         1740.,    7.355E-9
         1760.,    7.202E-9
         1780.,    7.366E-9
         1800.,    7.202E-9
         1820.,    6.766E-9
         1840.,    6.664E-9
         1860.,    6.755E-9
         1880.,    6.664E-9
         1900.,    6.533E-9
         1920.,    6.502E-9
         1940.,    6.420E-9
         1960.,    6.247E-9
         1980.,    5.964E-9
         2000.,    5.669E-9
         2002.,    5.646E-9
         2005.,    5.623E-9
         2008.,    5.600E-9
         2010.,    5.577E-9
         2012.,    5.555E-9
         2015.,    5.532E-9
         2018.,    5.509E-9
         2020.,    5.486E-9
         2022.,    5.482E-9
         2025.,    5.478E-9
         2027.,    5.475E-9
         2030.,    5.471E-9
         2032.,    5.467E-9
         2035.,    5.463E-9
         2038.,    5.459E-9
         2040.,    5.455E-9
         2042.,    5.428E-9
         2045.,    5.400E-9
         2048.,    5.372E-9
         2050.,    5.344E-9
         2052.,    5.316E-9
         2055.,    5.288E-9
         2058.,    5.260E-9
         2060.,    5.232E-9
         2062.,    5.246E-9
         2065.,    5.260E-9
         2067.,    5.274E-9
         2070.,    5.288E-9
         2072.,    5.302E-9
         2075.,    5.316E-9
         2077.,    5.330E-9
         2080.,    5.344E-9
         2082.,    5.323E-9
         2085.,    5.303E-9
         2088.,    5.282E-9
         2090.,    5.262E-9
         2092.,    5.242E-9
         2095.,    5.221E-9
         2098.,    5.201E-9
         2100.,    5.180E-9
         2102.,    5.171E-9
         2105.,    5.163E-9
         2107.,    5.154E-9
         2110.,    5.145E-9
         2112.,    5.136E-9
         2115.,    5.128E-9
         2118.,    5.119E-9
         2120.,    5.110E-9
         2122.,    5.055E-9
         2125.,    5.001E-9
         2128.,    4.946E-9
         2130.,    4.892E-9
         2133.,    4.837E-9
         2135.,    4.783E-9
         2138.,    4.728E-9
         2140.,    4.673E-9
         2142.,    4.687E-9
         2145.,    4.701E-9
         2147.,    4.715E-9
         2150.,    4.729E-9
         2153.,    4.743E-9
         2155.,    4.757E-9
         2157.,    4.771E-9
         2160.,    4.785E-9
         2162.,    4.768E-9
         2165.,    4.752E-9
         2168.,    4.735E-9
         2170.,    4.718E-9
         2173.,    4.702E-9
         2175.,    4.685E-9
         2177.,    4.668E-9
         2180.,    4.652E-9
         2182.,    4.653E-9
         2185.,    4.655E-9
         2187.,    4.656E-9
         2190.,    4.657E-9
         2193.,    4.658E-9
         2195.,    4.660E-9
         2198.,    4.661E-9
         2200.,    4.662E-9
         2202.,    4.641E-9
         2205.,    4.619E-9
         2208.,    4.597E-9
         2210.,    4.576E-9
         2213.,    4.554E-9
         2215.,    4.533E-9
         2218.,    4.511E-9
         2220.,    4.490E-9
         2222.,    4.474E-9
         2225.,    4.459E-9
         2227.,    4.444E-9
         2230.,    4.428E-9
         2233.,    4.413E-9
         2235.,    4.398E-9
         2237.,    4.383E-9
         2240.,    4.367E-9
         2242.,    4.360E-9
         2245.,    4.352E-9
         2248.,    4.345E-9
         2250.,    4.337E-9
         2253.,    4.329E-9
         2255.,    4.322E-9
         2257.,    4.314E-9
         2260.,    4.306E-9
         2262.,    4.317E-9
         2265.,    4.327E-9
         2267.,    4.337E-9
         2270.,    4.348E-9
         2273.,    4.358E-9
         2275.,    4.368E-9
         2277.,    4.379E-9
         2280.,    4.389E-9
         2282.,    4.384E-9
         2285.,    4.379E-9
         2288.,    4.374E-9
         2290.,    4.368E-9
         2293.,    4.363E-9
         2295.,    4.358E-9
         2298.,    4.353E-9
         2300.,    4.348E-9
         2302.,    4.321E-9
         2305.,    4.295E-9
         2307.,    4.268E-9
         2310.,    4.241E-9
         2313.,    4.214E-9
         2315.,    4.187E-9
         2317.,    4.161E-9
         2320.,    4.134E-9
         2322.,    4.111E-9
         2325.,    4.088E-9
         2327.,    4.065E-9
         2330.,    4.042E-9
         2333.,    4.019E-9
         2335.,    3.997E-9
         2337.,    3.974E-9
         2340.,    3.951E-9
         2342.,    3.933E-9
         2345.,    3.916E-9
         2347.,    3.898E-9
         2350.,    3.880E-9
         2353.,    3.863E-9
         2355.,    3.845E-9
         2357.,    3.827E-9
         2360.,    3.810E-9
         2362.,    3.793E-9
         2365.,    3.777E-9
         2368.,    3.760E-9
         2370.,    3.744E-9
         2373.,    3.727E-9
         2375.,    3.711E-9
         2377.,    3.694E-9
         2380.,    3.678E-9
         2383.,    3.669E-9
         2385.,    3.660E-9
         2387.,    3.651E-9
         2390.,    3.642E-9
         2393.,    3.633E-9
         2395.,    3.624E-9
         2397.,    3.615E-9
         2400.,    3.607E-9
         2403.,    3.625E-9
         2405.,    3.644E-9
         2407.,    3.663E-9
         2410.,    3.682E-9
         2413.,    3.701E-9
         2415.,    3.720E-9
         2417.,    3.739E-9
         2420.,    3.758E-9
         2423.,    3.773E-9
         2425.,    3.788E-9
         2427.,    3.804E-9
         2430.,    3.819E-9
         2433.,    3.834E-9
         2435.,    3.849E-9
         2437.,    3.865E-9
         2440.,    3.880E-9
         2443.,    3.894E-9
         2445.,    3.908E-9
         2448.,    3.922E-9
         2450.,    3.936E-9
         2452.,    3.950E-9
         2455.,    3.964E-9
         2457.,    3.979E-9
         2460.,    3.992E-9
         2463.,    3.972E-9
         2465.,    3.952E-9
         2467.,    3.932E-9
         2470.,    3.911E-9
         2473.,    3.891E-9
         2475.,    3.871E-9
         2477.,    3.850E-9
         2480.,    3.830E-9
         2483.,    3.846E-9
         2485.,    3.863E-9
         2487.,    3.880E-9
         2490.,    3.896E-9
         2493.,    3.913E-9
         2495.,    3.929E-9
         2497.,    3.946E-9
         2500.,    3.962E-9
         2502.,    3.933E-9
         2505.,    3.903E-9
         2507.,    3.874E-9
         2510.,    3.845E-9
         2513.,    3.815E-9
         2515.,    3.786E-9
         2518.,    3.757E-9
         2520.,    3.727E-9
         2522.,    3.698E-9
         2525.,    3.669E-9
         2527.,    3.640E-9
         2530.,    3.611E-9
         2532.,    3.581E-9
         2535.,    3.552E-9
         2538.,    3.523E-9
         2540.,    3.494E-9
         2542.,    3.537E-9
         2545.,    3.580E-9
         2548.,    3.624E-9
         2550.,    3.667E-9
         2552.,    3.710E-9
         2555.,    3.754E-9
         2558.,    3.797E-9
         2560.,    3.840E-9
         2562.,    3.854E-9
         2565.,    3.868E-9
         2567.,    3.882E-9
         2570.,    3.896E-9
         2573.,    3.910E-9
         2575.,    3.923E-9
         2577.,    3.937E-9
         2580.,    3.951E-9
         2582.,    3.921E-9
         2585.,    3.890E-9
         2587.,    3.860E-9
         2590.,    3.830E-9
         2593.,    3.799E-9
         2595.,    3.769E-9
         2598.,    3.738E-9
         2600.,    3.708E-9
         2602.,    3.702E-9
         2605.,    3.695E-9
         2607.,    3.689E-9
         2610.,    3.682E-9
         2612.,    3.676E-9
         2615.,    3.669E-9
         2618.,    3.663E-9
         2620.,    3.656E-9
         2622.,    3.691E-9
         2625.,    3.725E-9
         2627.,    3.760E-9
         2630.,    3.794E-9
         2633.,    3.829E-9
         2635.,    3.863E-9
         2638.,    3.897E-9
         2640.,    3.932E-9
         2642.,    3.932E-9
         2645.,    3.932E-9
         2647.,    3.932E-9
         2650.,    3.932E-9
         2652.,    3.932E-9
         2655.,    3.932E-9
         2657.,    3.932E-9
         2660.,    3.932E-9
         2662.,    3.932E-9
         2665.,    3.932E-9
         2667.,    3.932E-9
         2670.,    3.932E-9
         2673.,    3.932E-9
         2675.,    3.932E-9
         2677.,    3.932E-9
         2680.,    3.932E-9
         2682.,    3.923E-9
         2685.,    3.914E-9
         2687.,    3.905E-9
         2690.,    3.896E-9
         2692.,    3.887E-9
         2695.,    3.878E-9
         2698.,    3.869E-9
         2700.,    3.861E-9
         2702.,    3.861E-9
         2705.,    3.861E-9
         2707.,    3.861E-9
         2710.,    3.861E-9
         2713.,    3.861E-9
         2715.,    3.861E-9
         2718.,    3.861E-9
         2720.,    3.861E-9
         2722.,    3.837E-9
         2725.,    3.812E-9
         2727.,    3.788E-9
         2730.,    3.764E-9
         2732.,    3.740E-9
         2735.,    3.716E-9
         2737.,    3.692E-9
         2740.,    3.668E-9
         2742.,    3.665E-9
         2745.,    3.662E-9
         2747.,    3.660E-9
         2750.,    3.657E-9
         2753.,    3.655E-9
         2755.,    3.652E-9
         2758.,    3.650E-9
         2760.,    3.647E-9
         2762.,    3.629E-9
         2765.,    3.612E-9
         2767.,    3.594E-9
         2770.,    3.576E-9
         2772.,    3.558E-9
         2775.,    3.541E-9
         2778.,    3.523E-9
         2780.,    3.505E-9
         2782.,    3.490E-9
         2785.,    3.474E-9
         2787.,    3.459E-9
         2790.,    3.444E-9
         2793.,    3.429E-9
         2795.,    3.414E-9
         2798.,    3.398E-9
         2800.,    3.383E-9
         2802.,    3.415E-9
         2805.,    3.447E-9
         2807.,    3.478E-9
         2810.,    3.510E-9
         2812.,    3.542E-9
         2815.,    3.574E-9
         2817.,    3.605E-9
         2820.,    3.637E-9
         2823.,    3.655E-9
         2825.,    3.672E-9
         2827.,    3.690E-9
         2830.,    3.708E-9
         2833.,    3.725E-9
         2835.,    3.743E-9
         2838.,    3.761E-9
         2840.,    3.778E-9
         2842.,    3.759E-9
         2845.,    3.740E-9
         2847.,    3.721E-9
         2850.,    3.702E-9
         2852.,    3.683E-9
         2855.,    3.664E-9
         2858.,    3.645E-9
         2860.,    3.626E-9
         2862.,    3.618E-9
         2865.,    3.611E-9
         2867.,    3.603E-9
         2870.,    3.595E-9
         2873.,    3.588E-9
         2875.,    3.580E-9
         2878.,    3.573E-9
         2880.,    3.565E-9
         2883.,    3.574E-9
         2885.,    3.583E-9
         2887.,    3.592E-9
         2890.,    3.601E-9
         2892.,    3.610E-9
         2895.,    3.619E-9
         2898.,    3.628E-9
         2900.,    3.637E-9
         2903.,    3.650E-9
         2905.,    3.662E-9
         2907.,    3.675E-9
         2910.,    3.688E-9
         2913.,    3.700E-9
         2915.,    3.713E-9
         2918.,    3.726E-9
         2920.,    3.739E-9
         2923.,    3.723E-9
         2925.,    3.708E-9
         2927.,    3.693E-9
         2930.,    3.678E-9
         2932.,    3.662E-9
         2935.,    3.647E-9
         2938.,    3.632E-9
         2940.,    3.617E-9
         2942.,    3.622E-9
         2945.,    3.627E-9
         2948.,    3.632E-9
         2950.,    3.637E-9
         2952.,    3.641E-9
         2955.,    3.646E-9
         2958.,    3.652E-9
         2960.,    3.656E-9
         2963.,    3.656E-9
         2965.,    3.656E-9
         2967.,    3.656E-9
         2970.,    3.656E-9
         2972.,    3.656E-9
         2975.,    3.656E-9
         2978.,    3.656E-9
         2980.,    3.656E-9
         2983.,    3.660E-9
         2985.,    3.664E-9
         2987.,    3.668E-9
         2990.,    3.672E-9
         2993.,    3.675E-9
         2995.,    3.679E-9
         2998.,    3.683E-9
         3000.,    3.687E-9
         3003.,    3.697E-9
         3005.,    3.707E-9
         3007.,    3.718E-9
         3010.,    3.728E-9
         3012.,    3.738E-9
         3015.,    3.749E-9
         3018.,    3.759E-9
         3020.,    3.769E-9
         3023.,    3.767E-9
         3025.,    3.764E-9
         3027.,    3.761E-9
         3030.,    3.758E-9
         3032.,    3.756E-9
         3035.,    3.753E-9
         3038.,    3.750E-9
         3040.,    3.748E-9
         3043.,    3.736E-9
         3045.,    3.725E-9
         3048.,    3.714E-9
         3050.,    3.702E-9
         3052.,    3.691E-9
         3055.,    3.679E-9
         3058.,    3.668E-9
         3060.,    3.656E-9
         3063.,    3.663E-9
         3065.,    3.669E-9
         3067.,    3.676E-9
         3070.,    3.682E-9
         3073.,    3.689E-9
         3075.,    3.695E-9
         3077.,    3.702E-9
         3080.,    3.708E-9
         3083.,    3.708E-9
         3085.,    3.708E-9
         3087.,    3.708E-9
         3090.,    3.708E-9
         3092.,    3.708E-9
         3095.,    3.708E-9
         3098.,    3.708E-9
         3100.,    3.708E-9
         3103.,    3.704E-9
         3105.,    3.700E-9
         3107.,    3.697E-9
         3110.,    3.693E-9
         3112.,    3.689E-9
         3115.,    3.685E-9
         3118.,    3.681E-9
         3120.,    3.678E-9
         3123.,    3.680E-9
         3125.,    3.683E-9
         3127.,    3.685E-9
         3130.,    3.688E-9
         3132.,    3.690E-9
         3135.,    3.693E-9
         3138.,    3.695E-9
         3140.,    3.698E-9
         3143.,    3.702E-9
         3145.,    3.705E-9
         3147.,    3.709E-9
         3150.,    3.713E-9
         3152.,    3.717E-9
         3155.,    3.720E-9
         3157.,    3.724E-9
         3160.,    3.727E-9
         3163.,    3.724E-9
         3165.,    3.720E-9
         3167.,    3.717E-9
         3170.,    3.713E-9
         3173.,    3.709E-9
         3175.,    3.705E-9
         3177.,    3.702E-9
         3180.,    3.698E-9
         3183.,    3.696E-9
         3185.,    3.695E-9
         3187.,    3.694E-9
         3190.,    3.692E-9
         3192.,    3.691E-9
         3195.,    3.690E-9
         3198.,    3.688E-9
         3200.,    3.687E-9
         3202.,    3.688E-9
         3205.,    3.690E-9
         3208.,    3.691E-9
         3210.,    3.692E-9
         3212.,    3.694E-9
         3215.,    3.695E-9
         3217.,    3.696E-9
         3220.,    3.698E-9
         3223.,    3.688E-9
         3225.,    3.678E-9
         3227.,    3.668E-9
         3230.,    3.657E-9
         3233.,    3.647E-9
         3235.,    3.637E-9
         3237.,    3.627E-9
         3240.,    3.617E-9
         3260.,    3.916E-9
         3270.,    3.844E-9
         3280.,    3.811E-9
         3290.,    3.844E-9
         3300.,    3.956E-9
         3310.,    3.792E-9
         3320.,    3.579E-9
         3330.,    3.655E-9
         3340.,    3.544E-9
         3350.,    3.544E-9
         3360.,    3.622E-9
         3370.,    3.435E-9
         3380.,    3.419E-9
         3390.,    3.626E-9
         3400.,    3.588E-9
         3410.,    3.476E-9
         3420.,    3.632E-9
         3430.,    3.473E-9
         3440.,    3.369E-9
         3450.,    3.368E-9
         3460.,    3.376E-9
         3470.,    3.235E-9
         3480.,    3.236E-9
         3490.,    3.220E-9
         3500.,    3.184E-9
         3510.,    3.197E-9
         3520.,    3.216E-9
         3530.,    3.299E-9
         3540.,    3.231E-9
         3550.,    3.193E-9
         3560.,    3.244E-9
         3570.,    3.146E-9
         3580.,    3.143E-9
         3590.,    3.180E-9
         3600.,    3.127E-9
         3610.,    3.111E-9
         3620.,    3.093E-9
         3630.,    3.026E-9
         3640.,    3.070E-9
         3650.,    3.068E-9
         3660.,    3.046E-9
         3670.,    3.034E-9
         3680.,    2.931E-9
         3690.,    3.050E-9
         3700.,    2.996E-9
         3710.,    3.248E-9
         3720.,    3.549E-9
         3730.,    3.680E-9
         3740.,    3.916E-9
         3750.,    4.352E-9
         3760.,    4.639E-9
         3770.,    4.747E-9
         3780.,    5.992E-9
         3790.,    5.807E-9
         3800.,    5.207E-9
         3810.,    7.091E-9
         3820.,    7.568E-9
         3830.,    5.354E-9
         3840.,    5.335E-9
         3850.,    7.745E-9
         3860.,    8.701E-9
         3870.,    8.518E-9
         3880.,    6.460E-9
         3890.,    4.911E-9
         3900.,    6.829E-9
         3910.,    8.580E-9
         3920.,    9.126E-9
         3930.,    8.769E-9
         3940.,    8.780E-9
         3950.,    8.673E-9
         3960.,    6.645E-9
         3970.,    4.856E-9
         3980.,    6.959E-9
         3990.,    8.781E-9
         4000.,    9.092E-9
         4010.,    9.155E-9
         4020.,    8.988E-9
         4030.,    8.957E-9
         4040.,    9.000E-9
         4050.,    8.908E-9
         4060.,    8.885E-9
         4070.,    8.591E-9
         4080.,    8.083E-9
         4090.,    6.350E-9
         4100.,    4.677E-9
         4110.,    5.713E-9
         4120.,    7.548E-9
         4130.,    8.215E-9
         4140.,    8.366E-9
         4150.,    8.434E-9
         4160.,    8.336E-9
         4170.,    8.221E-9
         4180.,    8.089E-9
         4190.,    8.267E-9
         4200.,    8.302E-9
         4210.,    8.263E-9
         4220.,    8.224E-9
         4230.,    8.032E-9
         4240.,    8.097E-9
         4250.,    7.921E-9
         4260.,    8.004E-9
         4270.,    7.864E-9
         4280.,    7.870E-9
         4290.,    7.703E-9
         4300.,    7.543E-9
         4310.,    7.273E-9
         4320.,    6.672E-9
         4330.,    4.741E-9
         4340.,    3.841E-9
         4350.,    5.066E-9
         4360.,    6.797E-9
         4370.,    7.137E-9
         4380.,    7.264E-9
         4390.,    7.078E-9
         4400.,    7.182E-9
         4410.,    7.076E-9
         4420.,    7.072E-9
         4430.,    7.090E-9
         4440.,    7.025E-9
         4450.,    6.894E-9
         4460.,    6.836E-9
         4470.,    6.587E-9
         4480.,    6.378E-9
         4490.,    6.452E-9
         4500.,    6.478E-9
         4510.,    6.481E-9
         4520.,    6.500E-9
         4530.,    6.461E-9
         4540.,    6.385E-9
         4550.,    6.247E-9
         4560.,    6.292E-9
         4570.,    6.192E-9
         4580.,    6.253E-9
         4590.,    6.179E-9
         4600.,    6.189E-9
         4610.,    6.141E-9
         4620.,    6.089E-9
         4630.,    6.018E-9
         4640.,    6.001E-9
         4650.,    5.986E-9
         4660.,    5.824E-9
         4670.,    5.834E-9
         4680.,    5.959E-9
         4690.,    5.839E-9
         4700.,    5.854E-9
         4710.,    5.790E-9
         4720.,    5.824E-9
         4730.,    5.687E-9
         4740.,    5.707E-9
         4750.,    5.698E-9
         4760.,    5.669E-9
         4770.,    5.563E-9
         4780.,    5.593E-9
         4790.,    5.541E-9
         4800.,    5.428E-9
         4810.,    5.439E-9
         4820.,    5.261E-9
         4830.,    5.169E-9
         4840.,    4.836E-9
         4850.,    3.698E-9
         4860.,    3.041E-9
         4870.,    3.575E-9
         4880.,    4.591E-9
         4890.,    4.938E-9
         4900.,    5.091E-9
         4910.,    5.115E-9
         4920.,    5.058E-9
         4930.,    5.033E-9
         4940.,    5.143E-9
         4950.,    5.073E-9
         4960.,    5.035E-9
         4970.,    4.979E-9
         4980.,    4.875E-9
         4990.,    4.860E-9
         5000.,    4.810E-9
         5010.,    4.787E-9
         5020.,    4.733E-9
         5030.,    4.736E-9
         5040.,    4.662E-9
         5050.,    4.647E-9
         5060.,    4.599E-9
         5070.,    4.585E-9
         5080.,    4.529E-9
         5090.,    4.452E-9
         5100.,    4.468E-9
         5110.,    4.401E-9
         5120.,    4.409E-9
         5130.,    4.317E-9
         5140.,    4.366E-9
         5150.,    4.357E-9
         5160.,    4.349E-9
         5170.,    4.299E-9
         5180.,    4.246E-9
         5190.,    4.238E-9
         5200.,    4.229E-9
         5210.,    4.225E-9
         5220.,    4.169E-9
         5230.,    4.113E-9
         5240.,    4.102E-9
         5250.,    4.106E-9
         5260.,    4.083E-9
         5270.,    4.043E-9
         5280.,    4.009E-9
         5290.,    4.071E-9
         5300.,    4.002E-9
         5310.,    3.983E-9
         5320.,    3.921E-9
         5330.,    3.914E-9
         5340.,    3.942E-9
         5350.,    3.927E-9
         5360.,    3.909E-9
         5370.,    3.822E-9
         5380.,    3.842E-9
         5390.,    3.835E-9
         5400.,    3.791E-9
         5410.,    3.773E-9
         5420.,    3.745E-9
         5430.,    3.745E-9
         5440.,    3.685E-9
         5450.,    3.673E-9
         5460.,    3.590E-9
         5470.,    3.580E-9
         5480.,    3.599E-9
         5490.,    3.583E-9
         5500.,    3.560E-9
         5510.,    3.496E-9
         5520.,    3.497E-9
         5530.,    3.504E-9
         5540.,    3.489E-9
         5550.,    3.480E-9
         5560.,    3.484E-9
         5570.,    3.479E-9
         5580.,    3.437E-9
         5590.,    3.443E-9
         5600.,    3.445E-9
         5610.,    3.405E-9
         5620.,    3.420E-9
         5630.,    3.390E-9
         5640.,    3.371E-9
         5650.,    3.353E-9
         5660.,    3.334E-9
         5670.,    3.316E-9
         5680.,    3.298E-9
         5690.,    3.280E-9
         5700.,    3.262E-9
         5710.,    3.245E-9
         5720.,    3.227E-9
         5730.,    3.209E-9
         5740.,    3.192E-9
         5760.,    3.176E-9
         5780.,    3.179E-9
         5800.,    3.146E-9
         5820.,    3.116E-9
         5840.,    3.084E-9
         5860.,    3.022E-9
         5880.,    2.961E-9
         5900.,    2.958E-9
         5920.,    2.956E-9
         5940.,    2.921E-9
         5960.,    2.883E-9
         5980.,    2.861E-9
         6000.,    2.830E-9
         6020.,    2.788E-9
         6040.,    2.735E-9
         6060.,    2.750E-9
         6080.,    2.742E-9
         6100.,    2.720E-9
         6120.,    2.692E-9
         6140.,    2.643E-9
         6160.,    2.612E-9
         6180.,    2.580E-9
         6200.,    2.551E-9
         6220.,    2.547E-9
         6240.,    2.544E-9
         6260.,    2.492E-9
         6280.,    2.440E-9
         6300.,    2.417E-9
         6320.,    2.397E-9
         6340.,    2.365E-9
         6360.,    2.340E-9
         6380.,    2.326E-9
         6400.,    2.322E-9
         6420.,    2.262E-9
         6440.,    2.221E-9
         6460.,    2.194E-9
         6480.,    2.171E-9
         6500.,    2.189E-9
         6520.,    2.124E-9
         6540.,    1.805E-9
         6560.,    1.692E-9
         6580.,    1.922E-9
         6600.,    2.089E-9
         6620.,    2.113E-9
         6640.,    2.080E-9
         6660.,    2.054E-9
         6680.,    2.024E-9
         6700.,    2.020E-9
         6720.,    2.006E-9
         6740.,    1.989E-9
         6760.,    1.979E-9
         6780.,    1.930E-9
         6800.,    1.943E-9
         6820.,    1.944E-9
         6840.,    1.958E-9
         6860.,    1.869E-9
         6880.,    1.847E-9
         6900.,    1.858E-9
         6920.,    1.854E-9
         6940.,    1.807E-9
         6960.,    1.811E-9
         6980.,    1.757E-9
         7000.,    1.765E-9
         7020.,    1.756E-9
         7040.,    1.743E-9
         7060.,    1.736E-9
         7080.,    1.730E-9
         7100.,    1.705E-9
         7120.,    1.682E-9
         7140.,    1.658E-9
         7160.,    1.652E-9
         7180.,    1.665E-9
         7200.,    1.631E-9
         7220.,    1.605E-9
         7240.,    1.582E-9
         7260.,    1.573E-9
         7280.,    1.538E-9
         7300.,    1.544E-9
         7320.,    1.547E-9
         7340.,    1.526E-9
         7360.,    1.517E-9
         7380.,    1.500E-9
         7400.,    1.511E-9
         7420.,    1.486E-9
         7440.,    1.480E-9
         7460.,    1.461E-9
         7480.,    1.449E-9
         7500.,    1.435E-9
         7520.,    1.446E-9
         7540.,    1.477E-9
         7560.,    1.487E-9
         7580.,    1.403E-9
         7600.,    1.167E-9
         7620.,    1.421E-9
         7640.,    1.360E-9
         7660.,    1.358E-9
         7680.,    1.209E-9
         7700.,    1.283E-9
         7720.,    1.291E-9
         7740.,    1.287E-9
         7760.,    1.289E-9
         7780.,    1.273E-9
         7800.,    1.289E-9
         7820.,    1.267E-9
         7840.,    1.261E-9
         7860.,    1.210E-9
         7880.,    1.188E-9
         7900.,    1.181E-9
         7920.,    1.173E-9
         7940.,    1.179E-9
         7960.,    1.196E-9
         7980.,    1.170E-9
         8000.,    1.134E-9
         8020.,    1.124E-9
         8040.,    1.137E-9
         8060.,    1.159E-9
         8080.,    1.138E-9
         8100.,    1.104E-9
         8120.,    1.140E-9
         8140.,    1.133E-9
         8160.,    1.086E-9
         8180.,    1.084E-9
         8200.,    1.107E-9
         8220.,    1.066E-9
         8240.,    1.036E-9
         8260.,    1.080E-9
         8280.,    1.075E-9
         8300.,    1.047E-9
         8320.,    1.072E-9
         8340.,    1.047E-9
         8360.,   9.868E-10
         8380.,    1.024E-9
         8400.,    1.066E-9
         8420.,    1.010E-9
         8440.,    1.035E-9
         8460.,   9.880E-10
         8480.,    1.018E-9
         8500.,   9.967E-10
         8520.,    1.001E-9
         8540.,   9.858E-10
         8560.,    1.022E-9
         8580.,   9.384E-10
         8600.,   9.616E-10
         8620.,   9.724E-10
         8640.,   9.515E-10
         8660.,   8.863E-10
         8680.,   9.933E-10
         8700.,    1.000E-9
         8720.,   9.524E-10
         8740.,   8.594E-10
         8760.,   9.268E-10
         8780.,    1.003E-9
         8800.,    1.045E-9
         8820.,    1.007E-9
         8840.,   8.887E-10
         8860.,   8.130E-10
         8880.,   9.138E-10
         8900.,    1.000E-9
         8920.,    1.000E-9
         8940.,   9.998E-10
         8960.,   9.010E-10
         8980.,   8.635E-10
         9000.,   7.566E-10
         9020.,   7.666E-10
         9040.,   9.137E-10
         9060.,   9.101E-10
         9080.,   8.774E-10
         9100.,   9.243E-10
         9120.,   9.179E-10
         9140.,   9.106E-10
         9160.,   9.302E-10
         9180.,   8.975E-10
         9200.,   8.458E-10
         9220.,   7.061E-10
         9240.,   7.598E-10
         9260.,   8.192E-10
         9280.,   8.801E-10
         9300.,   8.647E-10
         9320.,   8.624E-10
         9340.,   8.439E-10
         9360.,   8.131E-10
         9380.,   7.895E-10
         9400.,   8.488E-10
         9420.,   7.250E-10
         9440.,   6.941E-10
         9460.,   7.935E-10
         9480.,   8.007E-10
         9500.,   7.514E-10
         9520.,   6.917E-10
         9540.,   6.185E-10
         9560.,   6.441E-10
         9580.,   7.597E-10
         9600.,   7.295E-10
         9620.,   7.325E-10
         9640.,   7.490E-10
         9660.,   7.375E-10
         9680.,   7.384E-10
         9700.,   7.240E-10
         9720.,   7.164E-10
         9740.,   7.552E-10
         9760.,   7.256E-10
         9780.,   7.379E-10
         9800.,   7.133E-10
         9820.,   7.198E-10
         9840.,   7.170E-10
         9860.,   6.993E-10
         9880.,   7.168E-10
         9900.,   6.926E-10
         9920.,   6.802E-10
         9940.,   6.819E-10
         9960.,   7.090E-10
         9980.,   6.793E-10
        10000.,   6.890E-10
        10020.,   5.818E-10
        10040.,   5.415E-10
        10060.,   5.792E-10
        10080.,   6.278E-10
        10100.,   6.593E-10
        10120.,   6.529E-10
        10140.,   6.359E-10
        10160.,   6.413E-10
        10180.,   6.707E-10
        10200.,   6.270E-10
        10220.,   6.280E-10
        10240.,   6.642E-10
        10260.,   6.579E-10
        10280.,   6.507E-10
        10300.,   6.299E-10
        10320.,   5.920E-10
        10340.,   6.041E-10
        10360.,   6.259E-10
        10380.,   5.982E-10
        10400.,   6.019E-10
        10420.,   5.870E-10
        10440.,   5.810E-10
        10460.,   5.433E-10
        10480.,   5.438E-10
        10500.,   5.656E-10
        10520.,   5.681E-10
        10540.,   5.438E-10
        10560.,   5.805E-10
        10580.,   5.584E-10
        10600.,   5.419E-10
        10800.,   5.082E-10
        11000.,   4.754E-10
        11200.,   4.437E-10
        11400.,   4.136E-10
        11600.,   3.852E-10
        11800.,   3.585E-10
        12000.,   3.338E-10
        12200.,   3.109E-10
        12400.,   2.900E-10
        12600.,   2.736E-10
        12800.,   2.471E-10
        13000.,   2.438E-10
        13200.,   2.327E-10
        13400.,   2.203E-10
        13600.,   2.091E-10
        13800.,   1.984E-10
        14000.,   1.890E-10
        14200.,   1.794E-10
        14400.,   1.698E-10
        14600.,   1.623E-10
        14800.,   1.547E-10
        15000.,   1.472E-10
        15200.,   1.404E-10
        15400.,   1.336E-10
        15600.,   1.279E-10
        15800.,   1.231E-10
        16000.,   1.194E-10
        16200.,   1.163E-10
        16400.,   1.112E-10
        16600.,   1.048E-10
        16800.,   9.913E-11
        17000.,   9.812E-11
        17200.,   9.129E-11
        17400.,   8.690E-11
        17600.,   8.618E-11
        17800.,   8.255E-11
        18000.,   7.699E-11
        18200.,   7.338E-11
        18400.,   7.294E-11
        18600.,   6.789E-11
        18800.,   6.529E-11
        19000.,   6.463E-11
        19200.,   6.155E-11
        19400.,   5.799E-11
        19600.,   5.761E-11
        19800.,   5.576E-11
        20000.,   5.369E-11
        20200.,   5.161E-11
        20400.,   4.979E-11
        20600.,   4.797E-11
        20800.,   4.640E-11
        21000.,   4.459E-11
        21200.,   4.303E-11
        21400.,   4.074E-11
        21600.,   3.870E-11
        21800.,   3.813E-11
        22000.,   3.755E-11
        22200.,   3.625E-11
        22400.,   3.520E-11
        22600.,   3.391E-11
        22800.,   3.286E-11
        23000.,   3.206E-11
        23200.,   3.102E-11
        23400.,   2.999E-11
        23600.,   2.919E-11
        23800.,   2.816E-11
        24000.,   2.737E-11
        24200.,   2.659E-11
        24400.,   2.576E-11
        24600.,   2.510E-11
        24800.,   2.432E-11
        25000.,   2.366E-11
        25200.,   2.289E-11
        25400.,   2.223E-11
        25600.,   2.156E-11
