wavelength, flux
          229.,          0.
          234.,          0.
          243.,          0.
          252.,          0.
          256.,          0.
          260.,          0.
          266.,          0.
          275.,          0.
          283.,          0.
          293.,          0.
          301.,          0.
          309.,          0.
          325.,          0.
          342.,          0.
          351.,          0.
          356.,          0.
          365.,          0.
          375.,          0.
          384.,          0.
          400.,          0.
          415.,          0.
          425.,          0.
          445.,          0.
          472.,          0.
          494.,          0.
          506.,   1.103E-21
          516.,   2.170E-21
          540.,   9.656E-21
          564.,   3.795E-20
          587.,   1.278E-19
          612.,   4.345E-19
          640.,   1.526E-18
          671.,   5.465E-18
          705.,   1.941E-17
          736.,   5.554E-17
          770.,   1.590E-16
          810.,   4.859E-16
          850.,   1.327E-15
          890.,   3.286E-15
          920.,   1.624E-13
          940.,   7.426E-13
          962.,   1.535E-12
          987.,   6.767E-12
         1012.,   6.856E-12
         1037.,   7.899E-12
         1062.,   2.579E-11
         1087.,   3.114E-11
         1112.,    2.235E-9
         1120.,    2.361E-9
         1140.,    2.356E-9
         1160.,    2.374E-9
         1180.,    1.509E-9
         1200.,   5.373E-10
         1220.,   1.893E-10
         1240.,    1.382E-9
         1260.,    3.282E-9
         1280.,    5.087E-9
         1300.,    5.319E-9
         1320.,    5.444E-9
         1340.,    6.101E-9
         1360.,    6.183E-9
         1380.,    5.999E-9
         1400.,    7.281E-9
         1420.,    7.865E-9
         1440.,    7.845E-9
         1460.,    8.594E-9
         1480.,    7.598E-9
         1500.,    9.331E-9
         1520.,    8.490E-9
         1540.,    8.932E-9
         1560.,    8.634E-9
         1580.,    9.023E-9
         1600.,    8.377E-9
         1620.,    7.803E-9
         1640.,    7.281E-9
         1660.,    7.281E-9
         1680.,    7.475E-9
         1700.,    7.495E-9
         1720.,    7.107E-9
         1740.,    7.425E-9
         1760.,    7.270E-9
         1780.,    7.435E-9
         1800.,    7.270E-9
         1820.,    6.830E-9
         1840.,    6.726E-9
         1860.,    6.818E-9
         1880.,    6.726E-9
         1900.,    6.594E-9
         1920.,    6.563E-9
         1940.,    6.480E-9
         1960.,    6.306E-9
         1980.,    6.020E-9
         2000.,    5.722E-9
         2002.,    5.699E-9
         2005.,    5.676E-9
         2008.,    5.653E-9
         2010.,    5.630E-9
         2012.,    5.607E-9
         2015.,    5.584E-9
         2018.,    5.561E-9
         2020.,    5.538E-9
         2022.,    5.534E-9
         2025.,    5.530E-9
         2027.,    5.526E-9
         2030.,    5.522E-9
         2032.,    5.519E-9
         2035.,    5.515E-9
         2038.,    5.511E-9
         2040.,    5.507E-9
         2042.,    5.479E-9
         2045.,    5.450E-9
         2048.,    5.422E-9
         2050.,    5.394E-9
         2052.,    5.366E-9
         2055.,    5.338E-9
         2058.,    5.309E-9
         2060.,    5.281E-9
         2062.,    5.295E-9
         2065.,    5.309E-9
         2067.,    5.324E-9
         2070.,    5.338E-9
         2072.,    5.352E-9
         2075.,    5.366E-9
         2077.,    5.380E-9
         2080.,    5.394E-9
         2082.,    5.373E-9
         2085.,    5.353E-9
         2088.,    5.332E-9
         2090.,    5.312E-9
         2092.,    5.291E-9
         2095.,    5.270E-9
         2098.,    5.250E-9
         2100.,    5.229E-9
         2102.,    5.220E-9
         2105.,    5.211E-9
         2107.,    5.203E-9
         2110.,    5.193E-9
         2112.,    5.185E-9
         2115.,    5.176E-9
         2118.,    5.167E-9
         2120.,    5.158E-9
         2122.,    5.103E-9
         2125.,    5.048E-9
         2128.,    4.993E-9
         2130.,    4.938E-9
         2133.,    4.883E-9
         2135.,    4.827E-9
         2138.,    4.772E-9
         2140.,    4.717E-9
         2142.,    4.731E-9
         2145.,    4.745E-9
         2147.,    4.760E-9
         2150.,    4.774E-9
         2153.,    4.788E-9
         2155.,    4.802E-9
         2157.,    4.816E-9
         2160.,    4.830E-9
         2162.,    4.813E-9
         2165.,    4.796E-9
         2168.,    4.780E-9
         2170.,    4.763E-9
         2173.,    4.746E-9
         2175.,    4.729E-9
         2177.,    4.712E-9
         2180.,    4.696E-9
         2182.,    4.697E-9
         2185.,    4.698E-9
         2187.,    4.700E-9
         2190.,    4.701E-9
         2193.,    4.702E-9
         2195.,    4.703E-9
         2198.,    4.705E-9
         2200.,    4.706E-9
         2202.,    4.684E-9
         2205.,    4.662E-9
         2208.,    4.641E-9
         2210.,    4.619E-9
         2213.,    4.597E-9
         2215.,    4.575E-9
         2218.,    4.553E-9
         2220.,    4.531E-9
         2222.,    4.516E-9
         2225.,    4.501E-9
         2227.,    4.486E-9
         2230.,    4.470E-9
         2233.,    4.455E-9
         2235.,    4.440E-9
         2237.,    4.424E-9
         2240.,    4.409E-9
         2242.,    4.401E-9
         2245.,    4.393E-9
         2248.,    4.386E-9
         2250.,    4.378E-9
         2253.,    4.370E-9
         2255.,    4.363E-9
         2257.,    4.355E-9
         2260.,    4.347E-9
         2262.,    4.357E-9
         2265.,    4.368E-9
         2267.,    4.378E-9
         2270.,    4.388E-9
         2273.,    4.399E-9
         2275.,    4.409E-9
         2277.,    4.420E-9
         2280.,    4.430E-9
         2282.,    4.425E-9
         2285.,    4.420E-9
         2288.,    4.415E-9
         2290.,    4.410E-9
         2293.,    4.404E-9
         2295.,    4.399E-9
         2298.,    4.394E-9
         2300.,    4.389E-9
         2302.,    4.362E-9
         2305.,    4.335E-9
         2307.,    4.308E-9
         2310.,    4.281E-9
         2313.,    4.254E-9
         2315.,    4.227E-9
         2317.,    4.200E-9
         2320.,    4.173E-9
         2322.,    4.150E-9
         2325.,    4.126E-9
         2327.,    4.103E-9
         2330.,    4.080E-9
         2333.,    4.057E-9
         2335.,    4.034E-9
         2337.,    4.011E-9
         2340.,    3.988E-9
         2342.,    3.970E-9
         2345.,    3.952E-9
         2347.,    3.935E-9
         2350.,    3.917E-9
         2353.,    3.899E-9
         2355.,    3.881E-9
         2357.,    3.863E-9
         2360.,    3.845E-9
         2362.,    3.829E-9
         2365.,    3.812E-9
         2368.,    3.795E-9
         2370.,    3.779E-9
         2373.,    3.762E-9
         2375.,    3.745E-9
         2377.,    3.729E-9
         2380.,    3.712E-9
         2383.,    3.703E-9
         2385.,    3.694E-9
         2387.,    3.685E-9
         2390.,    3.676E-9
         2393.,    3.667E-9
         2395.,    3.659E-9
         2397.,    3.649E-9
         2400.,    3.641E-9
         2403.,    3.660E-9
         2405.,    3.679E-9
         2407.,    3.698E-9
         2410.,    3.717E-9
         2413.,    3.736E-9
         2415.,    3.755E-9
         2417.,    3.774E-9
         2420.,    3.793E-9
         2423.,    3.809E-9
         2425.,    3.824E-9
         2427.,    3.840E-9
         2430.,    3.855E-9
         2433.,    3.870E-9
         2435.,    3.886E-9
         2437.,    3.901E-9
         2440.,    3.916E-9
         2443.,    3.930E-9
         2445.,    3.945E-9
         2448.,    3.959E-9
         2450.,    3.973E-9
         2452.,    3.987E-9
         2455.,    4.002E-9
         2457.,    4.016E-9
         2460.,    4.030E-9
         2463.,    4.010E-9
         2465.,    3.989E-9
         2467.,    3.969E-9
         2470.,    3.948E-9
         2473.,    3.928E-9
         2475.,    3.907E-9
         2477.,    3.887E-9
         2480.,    3.866E-9
         2483.,    3.883E-9
         2485.,    3.899E-9
         2487.,    3.916E-9
         2490.,    3.933E-9
         2493.,    3.949E-9
         2495.,    3.966E-9
         2497.,    3.983E-9
         2500.,    3.999E-9
         2502.,    3.970E-9
         2505.,    3.940E-9
         2507.,    3.910E-9
         2510.,    3.881E-9
         2513.,    3.851E-9
         2515.,    3.822E-9
         2518.,    3.792E-9
         2520.,    3.763E-9
         2522.,    3.733E-9
         2525.,    3.703E-9
         2527.,    3.674E-9
         2530.,    3.645E-9
         2532.,    3.615E-9
         2535.,    3.586E-9
         2538.,    3.556E-9
         2540.,    3.527E-9
         2542.,    3.570E-9
         2545.,    3.614E-9
         2548.,    3.658E-9
         2550.,    3.702E-9
         2552.,    3.745E-9
         2555.,    3.789E-9
         2558.,    3.833E-9
         2560.,    3.876E-9
         2562.,    3.890E-9
         2565.,    3.904E-9
         2567.,    3.918E-9
         2570.,    3.932E-9
         2573.,    3.946E-9
         2575.,    3.960E-9
         2577.,    3.974E-9
         2580.,    3.988E-9
         2582.,    3.957E-9
         2585.,    3.927E-9
         2587.,    3.896E-9
         2590.,    3.866E-9
         2593.,    3.835E-9
         2595.,    3.804E-9
         2598.,    3.774E-9
         2600.,    3.743E-9
         2602.,    3.737E-9
         2605.,    3.730E-9
         2607.,    3.724E-9
         2610.,    3.717E-9
         2612.,    3.710E-9
         2615.,    3.704E-9
         2618.,    3.697E-9
         2620.,    3.691E-9
         2622.,    3.725E-9
         2625.,    3.760E-9
         2627.,    3.795E-9
         2630.,    3.830E-9
         2633.,    3.864E-9
         2635.,    3.899E-9
         2638.,    3.934E-9
         2640.,    3.969E-9
         2642.,    3.969E-9
         2645.,    3.969E-9
         2647.,    3.969E-9
         2650.,    3.969E-9
         2652.,    3.969E-9
         2655.,    3.969E-9
         2657.,    3.969E-9
         2660.,    3.969E-9
         2662.,    3.969E-9
         2665.,    3.969E-9
         2667.,    3.969E-9
         2670.,    3.969E-9
         2673.,    3.969E-9
         2675.,    3.969E-9
         2677.,    3.969E-9
         2680.,    3.969E-9
         2682.,    3.960E-9
         2685.,    3.951E-9
         2687.,    3.942E-9
         2690.,    3.933E-9
         2692.,    3.924E-9
         2695.,    3.915E-9
         2698.,    3.906E-9
         2700.,    3.897E-9
         2702.,    3.897E-9
         2705.,    3.897E-9
         2707.,    3.897E-9
         2710.,    3.897E-9
         2713.,    3.897E-9
         2715.,    3.897E-9
         2718.,    3.897E-9
         2720.,    3.897E-9
         2722.,    3.872E-9
         2725.,    3.848E-9
         2727.,    3.824E-9
         2730.,    3.799E-9
         2732.,    3.775E-9
         2735.,    3.751E-9
         2737.,    3.726E-9
         2740.,    3.702E-9
         2742.,    3.699E-9
         2745.,    3.697E-9
         2747.,    3.694E-9
         2750.,    3.692E-9
         2753.,    3.689E-9
         2755.,    3.687E-9
         2758.,    3.684E-9
         2760.,    3.682E-9
         2762.,    3.664E-9
         2765.,    3.646E-9
         2767.,    3.628E-9
         2770.,    3.610E-9
         2772.,    3.592E-9
         2775.,    3.574E-9
         2778.,    3.556E-9
         2780.,    3.538E-9
         2782.,    3.523E-9
         2785.,    3.507E-9
         2787.,    3.492E-9
         2790.,    3.476E-9
         2793.,    3.461E-9
         2795.,    3.446E-9
         2798.,    3.430E-9
         2800.,    3.415E-9
         2802.,    3.447E-9
         2805.,    3.479E-9
         2807.,    3.511E-9
         2810.,    3.543E-9
         2812.,    3.575E-9
         2815.,    3.607E-9
         2817.,    3.639E-9
         2820.,    3.671E-9
         2823.,    3.689E-9
         2825.,    3.707E-9
         2827.,    3.725E-9
         2830.,    3.743E-9
         2833.,    3.760E-9
         2835.,    3.778E-9
         2838.,    3.796E-9
         2840.,    3.814E-9
         2842.,    3.795E-9
         2845.,    3.775E-9
         2847.,    3.756E-9
         2850.,    3.737E-9
         2852.,    3.718E-9
         2855.,    3.698E-9
         2858.,    3.679E-9
         2860.,    3.660E-9
         2862.,    3.652E-9
         2865.,    3.645E-9
         2867.,    3.637E-9
         2870.,    3.629E-9
         2873.,    3.622E-9
         2875.,    3.614E-9
         2878.,    3.606E-9
         2880.,    3.598E-9
         2883.,    3.608E-9
         2885.,    3.617E-9
         2887.,    3.626E-9
         2890.,    3.635E-9
         2892.,    3.644E-9
         2895.,    3.653E-9
         2898.,    3.662E-9
         2900.,    3.671E-9
         2903.,    3.684E-9
         2905.,    3.697E-9
         2907.,    3.710E-9
         2910.,    3.722E-9
         2913.,    3.735E-9
         2915.,    3.748E-9
         2918.,    3.761E-9
         2920.,    3.774E-9
         2923.,    3.759E-9
         2925.,    3.743E-9
         2927.,    3.728E-9
         2930.,    3.712E-9
         2932.,    3.697E-9
         2935.,    3.682E-9
         2938.,    3.666E-9
         2940.,    3.651E-9
         2942.,    3.656E-9
         2945.,    3.661E-9
         2948.,    3.666E-9
         2950.,    3.671E-9
         2952.,    3.676E-9
         2955.,    3.681E-9
         2958.,    3.686E-9
         2960.,    3.691E-9
         2963.,    3.691E-9
         2965.,    3.691E-9
         2967.,    3.691E-9
         2970.,    3.691E-9
         2972.,    3.691E-9
         2975.,    3.691E-9
         2978.,    3.691E-9
         2980.,    3.691E-9
         2983.,    3.695E-9
         2985.,    3.698E-9
         2987.,    3.702E-9
         2990.,    3.706E-9
         2993.,    3.710E-9
         2995.,    3.714E-9
         2998.,    3.718E-9
         3000.,    3.721E-9
         3003.,    3.732E-9
         3005.,    3.742E-9
         3007.,    3.753E-9
         3010.,    3.763E-9
         3012.,    3.774E-9
         3015.,    3.784E-9
         3018.,    3.794E-9
         3020.,    3.805E-9
         3023.,    3.802E-9
         3025.,    3.799E-9
         3027.,    3.797E-9
         3030.,    3.794E-9
         3032.,    3.791E-9
         3035.,    3.789E-9
         3038.,    3.786E-9
         3040.,    3.783E-9
         3043.,    3.771E-9
         3045.,    3.760E-9
         3048.,    3.748E-9
         3050.,    3.737E-9
         3052.,    3.725E-9
         3055.,    3.714E-9
         3058.,    3.702E-9
         3060.,    3.691E-9
         3063.,    3.697E-9
         3065.,    3.704E-9
         3067.,    3.710E-9
         3070.,    3.717E-9
         3073.,    3.724E-9
         3075.,    3.730E-9
         3077.,    3.737E-9
         3080.,    3.743E-9
         3083.,    3.743E-9
         3085.,    3.743E-9
         3087.,    3.743E-9
         3090.,    3.743E-9
         3092.,    3.743E-9
         3095.,    3.743E-9
         3098.,    3.743E-9
         3100.,    3.743E-9
         3103.,    3.739E-9
         3105.,    3.735E-9
         3107.,    3.732E-9
         3110.,    3.728E-9
         3112.,    3.724E-9
         3115.,    3.720E-9
         3118.,    3.716E-9
         3120.,    3.712E-9
         3123.,    3.715E-9
         3125.,    3.717E-9
         3127.,    3.720E-9
         3130.,    3.722E-9
         3132.,    3.725E-9
         3135.,    3.728E-9
         3138.,    3.730E-9
         3140.,    3.733E-9
         3143.,    3.737E-9
         3145.,    3.740E-9
         3147.,    3.744E-9
         3150.,    3.748E-9
         3152.,    3.751E-9
         3155.,    3.755E-9
         3157.,    3.759E-9
         3160.,    3.763E-9
         3163.,    3.759E-9
         3165.,    3.755E-9
         3167.,    3.751E-9
         3170.,    3.748E-9
         3173.,    3.744E-9
         3175.,    3.740E-9
         3177.,    3.737E-9
         3180.,    3.733E-9
         3183.,    3.732E-9
         3185.,    3.730E-9
         3187.,    3.729E-9
         3190.,    3.727E-9
         3192.,    3.726E-9
         3195.,    3.724E-9
         3198.,    3.723E-9
         3200.,    3.721E-9
         3202.,    3.723E-9
         3205.,    3.724E-9
         3208.,    3.726E-9
         3210.,    3.727E-9
         3212.,    3.729E-9
         3215.,    3.730E-9
         3217.,    3.732E-9
         3220.,    3.733E-9
         3223.,    3.722E-9
         3225.,    3.712E-9
         3227.,    3.702E-9
         3230.,    3.692E-9
         3233.,    3.682E-9
         3235.,    3.671E-9
         3237.,    3.661E-9
         3240.,    3.651E-9
         3260.,    3.953E-9
         3270.,    3.798E-9
         3280.,    3.719E-9
         3290.,    3.716E-9
         3300.,    3.874E-9
         3310.,    3.648E-9
         3320.,    3.559E-9
         3330.,    3.600E-9
         3340.,    3.603E-9
         3350.,    3.555E-9
         3360.,    3.503E-9
         3370.,    3.460E-9
         3380.,    3.468E-9
         3390.,    3.327E-9
         3400.,    3.441E-9
         3410.,    3.624E-9
         3420.,    3.602E-9
         3430.,    3.570E-9
         3440.,    3.401E-9
         3450.,    3.451E-9
         3460.,    3.440E-9
         3470.,    3.482E-9
         3480.,    3.354E-9
         3490.,    3.400E-9
         3500.,    3.339E-9
         3510.,    3.371E-9
         3520.,    3.269E-9
         3530.,    3.332E-9
         3540.,    3.399E-9
         3550.,    3.281E-9
         3560.,    3.244E-9
         3570.,    3.210E-9
         3580.,    3.210E-9
         3590.,    3.159E-9
         3600.,    3.119E-9
         3610.,    3.176E-9
         3620.,    3.113E-9
         3630.,    3.146E-9
         3640.,    3.081E-9
         3650.,    3.157E-9
         3660.,    3.135E-9
         3670.,    3.180E-9
         3680.,    3.066E-9
         3690.,    3.104E-9
         3700.,    3.046E-9
         3710.,    3.180E-9
         3720.,    3.380E-9
         3730.,    3.436E-9
         3740.,    3.550E-9
         3750.,    3.788E-9
         3760.,    3.952E-9
         3770.,    4.128E-9
         3780.,    4.895E-9
         3790.,    4.850E-9
         3800.,    4.564E-9
         3810.,    5.754E-9
         3820.,    6.146E-9
         3830.,    4.796E-9
         3840.,    4.811E-9
         3850.,    6.798E-9
         3860.,    7.662E-9
         3870.,    7.142E-9
         3880.,    5.321E-9
         3890.,    4.480E-9
         3900.,    5.871E-9
         3910.,    7.439E-9
         3920.,    8.097E-9
         3930.,    7.851E-9
         3940.,    7.747E-9
         3950.,    7.463E-9
         3960.,    5.673E-9
         3970.,    4.373E-9
         3980.,    5.997E-9
         3990.,    7.850E-9
         4000.,    8.765E-9
         4010.,    8.898E-9
         4020.,    8.874E-9
         4030.,    8.817E-9
         4040.,    9.006E-9
         4050.,    8.876E-9
         4060.,    8.674E-9
         4070.,    8.242E-9
         4080.,    7.507E-9
         4090.,    5.933E-9
         4100.,    4.519E-9
         4110.,    5.340E-9
         4120.,    7.027E-9
         4130.,    7.902E-9
         4140.,    8.392E-9
         4150.,    8.415E-9
         4160.,    8.305E-9
         4170.,    8.040E-9
         4180.,    8.039E-9
         4190.,    8.125E-9
         4200.,    8.235E-9
         4210.,    8.140E-9
         4220.,    7.998E-9
         4230.,    7.948E-9
         4240.,    7.928E-9
         4250.,    7.824E-9
         4260.,    7.764E-9
         4270.,    7.776E-9
         4280.,    7.614E-9
         4290.,    7.401E-9
         4300.,    7.048E-9
         4310.,    6.692E-9
         4320.,    5.693E-9
         4330.,    4.297E-9
         4340.,    3.920E-9
         4350.,    4.818E-9
         4360.,    6.545E-9
         4370.,    7.064E-9
         4380.,    7.094E-9
         4390.,    7.101E-9
         4400.,    7.013E-9
         4410.,    7.054E-9
         4420.,    7.089E-9
         4430.,    7.096E-9
         4440.,    6.920E-9
         4450.,    6.878E-9
         4460.,    6.803E-9
         4470.,    6.751E-9
         4480.,    6.607E-9
         4490.,    6.551E-9
         4500.,    6.580E-9
         4510.,    6.498E-9
         4520.,    6.496E-9
         4530.,    6.446E-9
         4540.,    6.386E-9
         4550.,    6.289E-9
         4560.,    6.325E-9
         4570.,    6.364E-9
         4580.,    6.259E-9
         4590.,    6.206E-9
         4600.,    6.267E-9
         4610.,    6.245E-9
         4620.,    6.356E-9
         4630.,    6.318E-9
         4640.,    6.159E-9
         4650.,    6.077E-9
         4660.,    6.066E-9
         4670.,    6.005E-9
         4680.,    6.074E-9
         4690.,    5.939E-9
         4700.,    5.850E-9
         4710.,    5.820E-9
         4720.,    5.869E-9
         4730.,    5.849E-9
         4740.,    5.824E-9
         4750.,    5.761E-9
         4760.,    5.703E-9
         4770.,    5.641E-9
         4780.,    5.713E-9
         4790.,    5.636E-9
         4800.,    5.480E-9
         4810.,    5.387E-9
         4820.,    5.228E-9
         4830.,    4.949E-9
         4840.,    4.413E-9
         4850.,    3.403E-9
         4860.,    2.967E-9
         4870.,    3.540E-9
         4880.,    4.393E-9
         4890.,    4.797E-9
         4900.,    4.964E-9
         4910.,    5.025E-9
         4920.,    4.937E-9
         4930.,    4.998E-9
         4940.,    5.085E-9
         4950.,    5.033E-9
         4960.,    4.929E-9
         4970.,    4.922E-9
         4980.,    4.946E-9
         4990.,    4.931E-9
         5000.,    4.863E-9
         5010.,    4.783E-9
         5020.,    4.751E-9
         5030.,    4.780E-9
         5040.,    4.653E-9
         5050.,    4.660E-9
         5060.,    4.684E-9
         5070.,    4.636E-9
         5080.,    4.601E-9
         5090.,    4.537E-9
         5100.,    4.511E-9
         5110.,    4.497E-9
         5120.,    4.446E-9
         5130.,    4.446E-9
         5140.,    4.437E-9
         5150.,    4.386E-9
         5160.,    4.349E-9
         5170.,    4.328E-9
         5180.,    4.271E-9
         5190.,    4.230E-9
         5200.,    4.246E-9
         5210.,    4.206E-9
         5220.,    4.186E-9
         5230.,    4.145E-9
         5240.,    4.110E-9
         5250.,    4.142E-9
         5260.,    4.024E-9
         5270.,    4.024E-9
         5280.,    4.040E-9
         5290.,    3.982E-9
         5300.,    3.948E-9
         5310.,    3.921E-9
         5320.,    3.906E-9
         5330.,    3.880E-9
         5340.,    3.904E-9
         5350.,    3.863E-9
         5360.,    3.848E-9
         5370.,    3.785E-9
         5380.,    3.732E-9
         5390.,    3.742E-9
         5400.,    3.737E-9
         5410.,    3.670E-9
         5420.,    3.690E-9
         5430.,    3.691E-9
         5440.,    3.645E-9
         5450.,    3.665E-9
         5460.,    3.639E-9
         5470.,    3.596E-9
         5480.,    3.608E-9
         5490.,    3.625E-9
         5500.,    3.587E-9
         5510.,    3.555E-9
         5520.,    3.565E-9
         5530.,    3.572E-9
         5540.,    3.537E-9
         5550.,    3.514E-9
         5560.,    3.495E-9
         5570.,    3.499E-9
         5580.,    3.523E-9
         5590.,    3.454E-9
         5600.,    3.443E-9
         5610.,    3.392E-9
         5620.,    3.381E-9
         5630.,    3.394E-9
         5640.,    3.377E-9
         5650.,    3.362E-9
         5660.,    3.346E-9
         5670.,    3.331E-9
         5680.,    3.315E-9
         5690.,    3.300E-9
         5700.,    3.285E-9
         5710.,    3.270E-9
         5720.,    3.255E-9
         5730.,    3.240E-9
         5740.,    3.225E-9
         5760.,    3.206E-9
         5780.,    3.229E-9
         5800.,    3.184E-9
         5820.,    3.111E-9
         5840.,    3.095E-9
         5860.,    3.051E-9
         5880.,    3.009E-9
         5900.,    3.015E-9
         5920.,    2.964E-9
         5940.,    2.898E-9
         5960.,    2.859E-9
         5980.,    2.849E-9
         6000.,    2.820E-9
         6020.,    2.771E-9
         6040.,    2.719E-9
         6060.,    2.698E-9
         6080.,    2.676E-9
         6100.,    2.633E-9
         6120.,    2.615E-9
         6140.,    2.576E-9
         6160.,    2.552E-9
         6180.,    2.551E-9
         6200.,    2.506E-9
         6220.,    2.483E-9
         6240.,    2.461E-9
         6260.,    2.400E-9
         6280.,    2.386E-9
         6300.,    2.386E-9
         6320.,    2.364E-9
         6340.,    2.320E-9
         6360.,    2.291E-9
         6380.,    2.280E-9
         6400.,    2.273E-9
         6420.,    2.241E-9
         6440.,    2.211E-9
         6460.,    2.198E-9
         6480.,    2.166E-9
         6500.,    2.156E-9
         6520.,    2.054E-9
         6540.,    1.795E-9
         6560.,    1.768E-9
         6580.,    2.033E-9
         6600.,    2.138E-9
         6620.,    2.180E-9
         6640.,    2.129E-9
         6660.,    2.110E-9
         6680.,    2.117E-9
         6700.,    2.149E-9
         6720.,    2.113E-9
         6740.,    2.075E-9
         6760.,    2.049E-9
         6780.,    2.045E-9
         6800.,    2.010E-9
         6820.,    1.982E-9
         6840.,    1.963E-9
         6860.,    1.914E-9
         6880.,    1.916E-9
         6900.,    1.975E-9
         6920.,    1.951E-9
         6940.,    1.900E-9
         6960.,    1.846E-9
         6980.,    1.845E-9
         7000.,    1.848E-9
         7020.,    1.806E-9
         7040.,    1.807E-9
         7060.,    1.805E-9
         7080.,    1.776E-9
         7100.,    1.747E-9
         7120.,    1.713E-9
         7140.,    1.697E-9
         7160.,    1.686E-9
         7180.,    1.679E-9
         7200.,    1.665E-9
         7220.,    1.668E-9
         7240.,    1.628E-9
         7260.,    1.618E-9
         7280.,    1.626E-9
         7300.,    1.625E-9
         7320.,    1.603E-9
         7340.,    1.599E-9
         7360.,    1.564E-9
         7380.,    1.549E-9
         7400.,    1.556E-9
         7420.,    1.520E-9
         7440.,    1.493E-9
         7460.,    1.475E-9
         7480.,    1.454E-9
         7500.,    1.434E-9
         7520.,    1.443E-9
         7540.,    1.436E-9
         7560.,    1.400E-9
         7580.,    1.205E-9
         7600.,    1.084E-9
         7620.,    1.412E-9
         7640.,    1.392E-9
         7660.,    1.364E-9
         7680.,    1.247E-9
         7700.,    1.295E-9
         7720.,    1.294E-9
         7740.,    1.289E-9
         7760.,    1.269E-9
         7780.,    1.274E-9
         7800.,    1.264E-9
         7820.,    1.239E-9
         7840.,    1.224E-9
         7860.,    1.213E-9
         7880.,    1.200E-9
         7900.,    1.146E-9
         7920.,    1.150E-9
         7940.,    1.161E-9
         7960.,    1.170E-9
         7980.,    1.157E-9
         8000.,    1.149E-9
         8020.,    1.129E-9
         8040.,    1.106E-9
         8060.,    1.129E-9
         8080.,    1.091E-9
         8100.,    1.076E-9
         8120.,    1.083E-9
         8140.,    1.099E-9
         8160.,    1.066E-9
         8180.,    1.061E-9
         8200.,    1.061E-9
         8220.,    1.061E-9
         8240.,    1.063E-9
         8260.,    1.046E-9
         8280.,    1.065E-9
         8300.,    1.055E-9
         8320.,    1.015E-9
         8340.,    1.024E-9
         8360.,    1.030E-9
         8380.,    1.029E-9
         8400.,    1.033E-9
         8420.,   9.898E-10
         8440.,   9.913E-10
         8460.,    1.005E-9
         8480.,   9.804E-10
         8500.,   9.735E-10
         8520.,   9.633E-10
         8540.,   9.482E-10
         8560.,   9.810E-10
         8580.,   9.765E-10
         8600.,   9.773E-10
         8620.,   9.500E-10
         8640.,   8.748E-10
         8660.,   9.394E-10
         8680.,   9.970E-10
         8700.,   9.730E-10
         8720.,   9.107E-10
         8740.,   8.711E-10
         8760.,   9.596E-10
         8780.,    1.047E-9
         8800.,   9.730E-10
         8820.,   9.296E-10
         8840.,   8.149E-10
         8860.,   8.431E-10
         8880.,   9.218E-10
         8900.,   9.657E-10
         8920.,   9.681E-10
         8940.,   9.914E-10
         8960.,   9.297E-10
         8980.,   7.751E-10
         9000.,   7.730E-10
         9020.,   8.627E-10
         9040.,   9.034E-10
         9060.,   9.132E-10
         9080.,   9.114E-10
         9100.,   9.563E-10
         9120.,   9.504E-10
         9140.,   9.146E-10
         9160.,   8.905E-10
         9180.,   8.759E-10
         9200.,   7.685E-10
         9220.,   7.559E-10
         9240.,   7.515E-10
         9260.,   7.996E-10
         9280.,   9.175E-10
         9300.,   8.695E-10
         9320.,   8.432E-10
         9340.,   8.899E-10
         9360.,   8.620E-10
         9380.,   9.360E-10
         9400.,   8.836E-10
         9420.,   7.741E-10
         9440.,   7.512E-10
         9460.,   8.240E-10
         9480.,   7.465E-10
         9500.,   7.634E-10
         9520.,   6.497E-10
         9540.,   6.577E-10
         9560.,   7.153E-10
         9580.,   7.425E-10
         9600.,   7.450E-10
         9620.,   7.051E-10
         9640.,   7.561E-10
         9660.,   7.079E-10
         9680.,   7.392E-10
         9700.,   6.937E-10
         9720.,   7.493E-10
         9740.,   7.028E-10
         9760.,   7.254E-10
         9780.,   7.412E-10
         9800.,   7.819E-10
         9820.,   7.302E-10
         9840.,   7.642E-10
         9860.,   7.433E-10
         9880.,   7.445E-10
         9900.,   6.993E-10
         9920.,   7.308E-10
         9940.,   7.301E-10
         9960.,   6.957E-10
         9980.,   6.928E-10
        10000.,   6.616E-10
        10020.,   5.860E-10
        10040.,   5.617E-10
        10060.,   6.129E-10
        10080.,   6.413E-10
        10100.,   6.437E-10
        10120.,   6.686E-10
        10140.,   6.379E-10
        10160.,   6.775E-10
        10180.,   6.193E-10
        10200.,   6.125E-10
        10220.,   6.510E-10
        10240.,   6.209E-10
        10260.,   6.364E-10
        10280.,   6.381E-10
        10300.,   6.185E-10
        10320.,   6.057E-10
        10340.,   6.135E-10
        10360.,   5.899E-10
        10380.,   5.916E-10
        10400.,   5.659E-10
        10420.,   5.378E-10
        10440.,   5.682E-10
        10460.,   5.433E-10
        10480.,   5.875E-10
        10500.,   5.519E-10
        10520.,   5.838E-10
        10540.,   5.849E-10
        10560.,   5.538E-10
        10580.,   5.802E-10
        10600.,   5.415E-10
        10800.,   5.088E-10
        11000.,   4.784E-10
        11200.,   4.498E-10
        11400.,   4.229E-10
        11600.,   3.975E-10
        11800.,   3.732E-10
        12000.,   3.501E-10
        12200.,   3.280E-10
        12400.,   3.067E-10
        12600.,   2.892E-10
        12800.,   2.588E-10
        13000.,   2.585E-10
        13200.,   2.459E-10
        13400.,   2.328E-10
        13600.,   2.208E-10
        13800.,   2.096E-10
        14000.,   1.996E-10
        14200.,   1.895E-10
        14400.,   1.794E-10
        14600.,   1.713E-10
        14800.,   1.633E-10
        15000.,   1.553E-10
        15200.,   1.482E-10
        15400.,   1.411E-10
        15600.,   1.350E-10
        15800.,   1.300E-10
        16000.,   1.260E-10
        16200.,   1.205E-10
        16400.,   1.146E-10
        16600.,   1.108E-10
        16800.,   1.028E-10
        17000.,   1.019E-10
        17200.,   9.727E-11
        17400.,   9.107E-11
        17600.,   9.024E-11
        17800.,   8.736E-11
        18000.,   8.284E-11
        18200.,   7.689E-11
        18400.,   7.692E-11
        18600.,   7.325E-11
        18800.,   6.801E-11
        19000.,   6.845E-11
        19200.,   6.565E-11
        19400.,   6.168E-11
        19600.,   6.081E-11
        19800.,   5.927E-11
        20000.,   5.674E-11
        20200.,   5.459E-11
        20400.,   5.261E-11
        20600.,   5.069E-11
        20800.,   4.900E-11
        21000.,   4.714E-11
        21200.,   4.552E-11
        21400.,   4.359E-11
        21600.,   4.074E-11
        21800.,   4.015E-11
        22000.,   3.963E-11
        22200.,   3.829E-11
        22400.,   3.712E-11
        22600.,   3.585E-11
        22800.,   3.475E-11
        23000.,   3.381E-11
        23200.,   3.276E-11
        23400.,   3.172E-11
        23600.,   3.078E-11
        23800.,   2.980E-11
        24000.,   2.893E-11
        24200.,   2.811E-11
        24400.,   2.721E-11
        24600.,   2.651E-11
        24800.,   2.570E-11
        25000.,   2.500E-11
        25200.,   2.419E-11
        25400.,   2.349E-11
        25600.,   2.278E-11
