wavelength, flux
          229.,          0.
          234.,          0.
          243.,          0.
          252.,          0.
          256.,          0.
          260.,          0.
          266.,          0.
          275.,          0.
          283.,          0.
          293.,          0.
          301.,          0.
          309.,          0.
          325.,          0.
          342.,          0.
          351.,          0.
          356.,          0.
          365.,          0.
          375.,          0.
          384.,          0.
          400.,          0.
          415.,          0.
          425.,          0.
          445.,          0.
          472.,          0.
          494.,          0.
          506.,   2.940E-26
          516.,   6.266E-26
          540.,   3.323E-25
          564.,   1.536E-24
          587.,   6.044E-24
          612.,   2.467E-23
          640.,   1.087E-22
          671.,   5.110E-22
          705.,   2.494E-21
          736.,   9.594E-21
          770.,   3.783E-20
          810.,   1.662E-19
          850.,   6.388E-19
          890.,   2.175E-18
          920.,   2.806E-16
          940.,   1.130E-15
          962.,   1.927E-15
          987.,   3.506E-15
         1012.,   5.352E-15
         1037.,   7.637E-15
         1062.,   1.192E-14
         1087.,   1.707E-14
         1112.,   1.962E-13
         1120.,   2.186E-13
         1140.,   2.685E-13
         1160.,   3.607E-13
         1180.,   4.359E-13
         1200.,   4.409E-13
         1220.,   5.868E-13
         1240.,   3.406E-12
         1260.,   1.945E-11
         1280.,   6.160E-11
         1300.,   9.390E-11
         1320.,   1.306E-10
         1340.,   1.707E-10
         1360.,   1.640E-10
         1380.,   1.814E-10
         1400.,   1.967E-10
         1420.,   2.093E-10
         1440.,   2.488E-10
         1460.,   3.234E-10
         1480.,   3.143E-10
         1500.,   3.557E-10
         1520.,   6.689E-10
         1540.,   8.475E-10
         1560.,   6.663E-10
         1580.,   9.508E-10
         1600.,    1.165E-9
         1620.,    1.293E-9
         1640.,    1.323E-9
         1660.,    1.371E-9
         1680.,    1.381E-9
         1700.,    1.589E-9
         1720.,    2.022E-9
         1740.,    2.128E-9
         1760.,    2.616E-9
         1780.,    2.639E-9
         1800.,    2.943E-9
         1820.,    2.563E-9
         1840.,    2.407E-9
         1860.,    2.639E-9
         1880.,    2.664E-9
         1900.,    2.717E-9
         1920.,    2.739E-9
         1940.,    2.691E-9
         1960.,    2.739E-9
         1980.,    2.639E-9
         2000.,    2.397E-9
         2002.,    2.390E-9
         2005.,    2.383E-9
         2008.,    2.376E-9
         2010.,    2.369E-9
         2012.,    2.363E-9
         2015.,    2.356E-9
         2018.,    2.349E-9
         2020.,    2.342E-9
         2022.,    2.352E-9
         2025.,    2.362E-9
         2027.,    2.372E-9
         2030.,    2.382E-9
         2032.,    2.392E-9
         2035.,    2.402E-9
         2038.,    2.412E-9
         2040.,    2.422E-9
         2042.,    2.413E-9
         2045.,    2.403E-9
         2048.,    2.393E-9
         2050.,    2.383E-9
         2052.,    2.373E-9
         2055.,    2.364E-9
         2058.,    2.354E-9
         2060.,    2.344E-9
         2062.,    2.365E-9
         2065.,    2.385E-9
         2067.,    2.405E-9
         2070.,    2.426E-9
         2072.,    2.446E-9
         2075.,    2.467E-9
         2077.,    2.487E-9
         2080.,    2.508E-9
         2082.,    2.480E-9
         2085.,    2.453E-9
         2088.,    2.426E-9
         2090.,    2.398E-9
         2092.,    2.371E-9
         2095.,    2.343E-9
         2098.,    2.316E-9
         2100.,    2.289E-9
         2102.,    2.277E-9
         2105.,    2.266E-9
         2107.,    2.254E-9
         2110.,    2.242E-9
         2112.,    2.231E-9
         2115.,    2.219E-9
         2118.,    2.208E-9
         2120.,    2.196E-9
         2122.,    2.166E-9
         2125.,    2.136E-9
         2128.,    2.105E-9
         2130.,    2.075E-9
         2133.,    2.045E-9
         2135.,    2.015E-9
         2138.,    1.985E-9
         2140.,    1.954E-9
         2142.,    1.959E-9
         2145.,    1.964E-9
         2147.,    1.969E-9
         2150.,    1.973E-9
         2153.,    1.978E-9
         2155.,    1.983E-9
         2157.,    1.987E-9
         2160.,    1.992E-9
         2162.,    1.993E-9
         2165.,    1.993E-9
         2168.,    1.994E-9
         2170.,    1.995E-9
         2173.,    1.995E-9
         2175.,    1.996E-9
         2177.,    1.997E-9
         2180.,    1.997E-9
         2182.,    2.006E-9
         2185.,    2.014E-9
         2187.,    2.023E-9
         2190.,    2.031E-9
         2193.,    2.040E-9
         2195.,    2.048E-9
         2198.,    2.057E-9
         2200.,    2.065E-9
         2202.,    2.051E-9
         2205.,    2.037E-9
         2208.,    2.023E-9
         2210.,    2.008E-9
         2213.,    1.994E-9
         2215.,    1.980E-9
         2218.,    1.966E-9
         2220.,    1.952E-9
         2222.,    1.941E-9
         2225.,    1.931E-9
         2227.,    1.921E-9
         2230.,    1.910E-9
         2233.,    1.900E-9
         2235.,    1.889E-9
         2237.,    1.879E-9
         2240.,    1.869E-9
         2242.,    1.857E-9
         2245.,    1.845E-9
         2248.,    1.834E-9
         2250.,    1.822E-9
         2253.,    1.811E-9
         2255.,    1.799E-9
         2257.,    1.787E-9
         2260.,    1.776E-9
         2262.,    1.790E-9
         2265.,    1.805E-9
         2267.,    1.820E-9
         2270.,    1.835E-9
         2273.,    1.850E-9
         2275.,    1.864E-9
         2277.,    1.879E-9
         2280.,    1.894E-9
         2282.,    1.884E-9
         2285.,    1.874E-9
         2288.,    1.864E-9
         2290.,    1.854E-9
         2293.,    1.844E-9
         2295.,    1.834E-9
         2298.,    1.824E-9
         2300.,    1.814E-9
         2302.,    1.795E-9
         2305.,    1.777E-9
         2307.,    1.759E-9
         2310.,    1.741E-9
         2313.,    1.722E-9
         2315.,    1.704E-9
         2317.,    1.686E-9
         2320.,    1.668E-9
         2322.,    1.654E-9
         2325.,    1.639E-9
         2327.,    1.625E-9
         2330.,    1.611E-9
         2333.,    1.597E-9
         2335.,    1.583E-9
         2337.,    1.568E-9
         2340.,    1.554E-9
         2342.,    1.545E-9
         2345.,    1.535E-9
         2347.,    1.526E-9
         2350.,    1.517E-9
         2353.,    1.507E-9
         2355.,    1.498E-9
         2357.,    1.488E-9
         2360.,    1.479E-9
         2362.,    1.477E-9
         2365.,    1.476E-9
         2368.,    1.474E-9
         2370.,    1.473E-9
         2373.,    1.471E-9
         2375.,    1.469E-9
         2377.,    1.468E-9
         2380.,    1.466E-9
         2383.,    1.453E-9
         2385.,    1.440E-9
         2387.,    1.428E-9
         2390.,    1.415E-9
         2393.,    1.402E-9
         2395.,    1.389E-9
         2397.,    1.376E-9
         2400.,    1.363E-9
         2403.,    1.380E-9
         2405.,    1.396E-9
         2407.,    1.413E-9
         2410.,    1.430E-9
         2413.,    1.446E-9
         2415.,    1.463E-9
         2417.,    1.480E-9
         2420.,    1.496E-9
         2423.,    1.524E-9
         2425.,    1.552E-9
         2427.,    1.579E-9
         2430.,    1.607E-9
         2433.,    1.635E-9
         2435.,    1.663E-9
         2437.,    1.690E-9
         2440.,    1.718E-9
         2443.,    1.718E-9
         2445.,    1.717E-9
         2448.,    1.717E-9
         2450.,    1.717E-9
         2452.,    1.716E-9
         2455.,    1.716E-9
         2457.,    1.716E-9
         2460.,    1.715E-9
         2463.,    1.705E-9
         2465.,    1.695E-9
         2467.,    1.684E-9
         2470.,    1.674E-9
         2473.,    1.664E-9
         2475.,    1.653E-9
         2477.,    1.643E-9
         2480.,    1.632E-9
         2483.,    1.649E-9
         2485.,    1.665E-9
         2487.,    1.682E-9
         2490.,    1.698E-9
         2493.,    1.714E-9
         2495.,    1.731E-9
         2497.,    1.747E-9
         2500.,    1.763E-9
         2502.,    1.748E-9
         2505.,    1.732E-9
         2507.,    1.716E-9
         2510.,    1.700E-9
         2513.,    1.685E-9
         2515.,    1.669E-9
         2518.,    1.653E-9
         2520.,    1.638E-9
         2522.,    1.601E-9
         2525.,    1.565E-9
         2527.,    1.528E-9
         2530.,    1.492E-9
         2532.,    1.455E-9
         2535.,    1.419E-9
         2538.,    1.382E-9
         2540.,    1.346E-9
         2542.,    1.380E-9
         2545.,    1.414E-9
         2548.,    1.448E-9
         2550.,    1.482E-9
         2552.,    1.516E-9
         2555.,    1.549E-9
         2558.,    1.583E-9
         2560.,    1.617E-9
         2562.,    1.646E-9
         2565.,    1.674E-9
         2567.,    1.702E-9
         2570.,    1.731E-9
         2573.,    1.759E-9
         2575.,    1.787E-9
         2577.,    1.815E-9
         2580.,    1.844E-9
         2582.,    1.835E-9
         2585.,    1.827E-9
         2587.,    1.818E-9
         2590.,    1.810E-9
         2593.,    1.801E-9
         2595.,    1.793E-9
         2598.,    1.784E-9
         2600.,    1.776E-9
         2602.,    1.770E-9
         2605.,    1.765E-9
         2607.,    1.760E-9
         2610.,    1.754E-9
         2612.,    1.749E-9
         2615.,    1.744E-9
         2618.,    1.738E-9
         2620.,    1.733E-9
         2622.,    1.782E-9
         2625.,    1.831E-9
         2627.,    1.880E-9
         2630.,    1.929E-9
         2633.,    1.978E-9
         2635.,    2.027E-9
         2638.,    2.076E-9
         2640.,    2.125E-9
         2642.,    2.123E-9
         2645.,    2.121E-9
         2647.,    2.119E-9
         2650.,    2.117E-9
         2652.,    2.114E-9
         2655.,    2.112E-9
         2657.,    2.110E-9
         2660.,    2.108E-9
         2662.,    2.099E-9
         2665.,    2.091E-9
         2667.,    2.082E-9
         2670.,    2.074E-9
         2673.,    2.065E-9
         2675.,    2.057E-9
         2677.,    2.048E-9
         2680.,    2.040E-9
         2682.,    2.035E-9
         2685.,    2.030E-9
         2687.,    2.026E-9
         2690.,    2.021E-9
         2692.,    2.016E-9
         2695.,    2.011E-9
         2698.,    2.007E-9
         2700.,    2.002E-9
         2702.,    2.006E-9
         2705.,    2.010E-9
         2707.,    2.013E-9
         2710.,    2.017E-9
         2713.,    2.021E-9
         2715.,    2.025E-9
         2718.,    2.028E-9
         2720.,    2.032E-9
         2722.,    2.005E-9
         2725.,    1.978E-9
         2727.,    1.950E-9
         2730.,    1.923E-9
         2732.,    1.896E-9
         2735.,    1.868E-9
         2737.,    1.841E-9
         2740.,    1.814E-9
         2742.,    1.816E-9
         2745.,    1.819E-9
         2747.,    1.821E-9
         2750.,    1.824E-9
         2753.,    1.826E-9
         2755.,    1.828E-9
         2758.,    1.831E-9
         2760.,    1.833E-9
         2762.,    1.823E-9
         2765.,    1.812E-9
         2767.,    1.801E-9
         2770.,    1.791E-9
         2772.,    1.780E-9
         2775.,    1.770E-9
         2778.,    1.759E-9
         2780.,    1.748E-9
         2782.,    1.737E-9
         2785.,    1.726E-9
         2787.,    1.715E-9
         2790.,    1.704E-9
         2793.,    1.693E-9
         2795.,    1.682E-9
         2798.,    1.671E-9
         2800.,    1.660E-9
         2802.,    1.698E-9
         2805.,    1.737E-9
         2807.,    1.775E-9
         2810.,    1.813E-9
         2812.,    1.852E-9
         2815.,    1.890E-9
         2817.,    1.928E-9
         2820.,    1.967E-9
         2823.,    1.984E-9
         2825.,    2.002E-9
         2827.,    2.020E-9
         2830.,    2.037E-9
         2833.,    2.055E-9
         2835.,    2.073E-9
         2838.,    2.090E-9
         2840.,    2.108E-9
         2842.,    2.093E-9
         2845.,    2.078E-9
         2847.,    2.063E-9
         2850.,    2.047E-9
         2852.,    2.032E-9
         2855.,    2.017E-9
         2858.,    2.002E-9
         2860.,    1.987E-9
         2862.,    1.993E-9
         2865.,    1.998E-9
         2867.,    2.004E-9
         2870.,    2.010E-9
         2873.,    2.015E-9
         2875.,    2.021E-9
         2878.,    2.027E-9
         2880.,    2.032E-9
         2883.,    2.044E-9
         2885.,    2.055E-9
         2887.,    2.067E-9
         2890.,    2.079E-9
         2892.,    2.090E-9
         2895.,    2.102E-9
         2898.,    2.114E-9
         2900.,    2.125E-9
         2903.,    2.141E-9
         2905.,    2.157E-9
         2907.,    2.173E-9
         2910.,    2.190E-9
         2913.,    2.206E-9
         2915.,    2.222E-9
         2918.,    2.238E-9
         2920.,    2.254E-9
         2923.,    2.244E-9
         2925.,    2.234E-9
         2927.,    2.225E-9
         2930.,    2.215E-9
         2932.,    2.205E-9
         2935.,    2.195E-9
         2938.,    2.186E-9
         2940.,    2.176E-9
         2942.,    2.181E-9
         2945.,    2.187E-9
         2948.,    2.193E-9
         2950.,    2.198E-9
         2952.,    2.204E-9
         2955.,    2.210E-9
         2958.,    2.215E-9
         2960.,    2.221E-9
         2963.,    2.222E-9
         2965.,    2.224E-9
         2967.,    2.226E-9
         2970.,    2.227E-9
         2972.,    2.229E-9
         2975.,    2.230E-9
         2978.,    2.232E-9
         2980.,    2.234E-9
         2983.,    2.245E-9
         2985.,    2.257E-9
         2987.,    2.269E-9
         2990.,    2.280E-9
         2993.,    2.292E-9
         2995.,    2.303E-9
         2998.,    2.315E-9
         3000.,    2.327E-9
         3003.,    2.332E-9
         3005.,    2.337E-9
         3007.,    2.342E-9
         3010.,    2.347E-9
         3012.,    2.352E-9
         3015.,    2.357E-9
         3018.,    2.362E-9
         3020.,    2.367E-9
         3023.,    2.366E-9
         3025.,    2.364E-9
         3027.,    2.363E-9
         3030.,    2.362E-9
         3032.,    2.361E-9
         3035.,    2.359E-9
         3038.,    2.358E-9
         3040.,    2.357E-9
         3043.,    2.354E-9
         3045.,    2.352E-9
         3048.,    2.350E-9
         3050.,    2.348E-9
         3052.,    2.346E-9
         3055.,    2.343E-9
         3058.,    2.341E-9
         3060.,    2.339E-9
         3063.,    2.349E-9
         3065.,    2.359E-9
         3067.,    2.368E-9
         3070.,    2.378E-9
         3073.,    2.388E-9
         3075.,    2.398E-9
         3077.,    2.407E-9
         3080.,    2.417E-9
         3083.,    2.411E-9
         3085.,    2.406E-9
         3087.,    2.400E-9
         3090.,    2.394E-9
         3092.,    2.389E-9
         3095.,    2.383E-9
         3098.,    2.377E-9
         3100.,    2.372E-9
         3103.,    2.373E-9
         3105.,    2.374E-9
         3107.,    2.376E-9
         3110.,    2.377E-9
         3112.,    2.378E-9
         3115.,    2.379E-9
         3118.,    2.381E-9
         3120.,    2.382E-9
         3123.,    2.388E-9
         3125.,    2.393E-9
         3127.,    2.399E-9
         3130.,    2.405E-9
         3132.,    2.410E-9
         3135.,    2.416E-9
         3138.,    2.422E-9
         3140.,    2.427E-9
         3143.,    2.429E-9
         3145.,    2.430E-9
         3147.,    2.431E-9
         3150.,    2.432E-9
         3152.,    2.434E-9
         3155.,    2.435E-9
         3157.,    2.436E-9
         3160.,    2.437E-9
         3163.,    2.439E-9
         3165.,    2.440E-9
         3167.,    2.441E-9
         3170.,    2.442E-9
         3173.,    2.444E-9
         3175.,    2.445E-9
         3177.,    2.446E-9
         3180.,    2.447E-9
         3183.,    2.447E-9
         3185.,    2.447E-9
         3187.,    2.447E-9
         3190.,    2.447E-9
         3192.,    2.447E-9
         3195.,    2.447E-9
         3198.,    2.447E-9
         3200.,    2.447E-9
         3202.,    2.441E-9
         3205.,    2.434E-9
         3208.,    2.428E-9
         3210.,    2.421E-9
         3212.,    2.414E-9
         3215.,    2.408E-9
         3217.,    2.401E-9
         3220.,    2.395E-9
         3223.,    2.391E-9
         3225.,    2.387E-9
         3227.,    2.383E-9
         3230.,    2.380E-9
         3233.,    2.376E-9
         3235.,    2.372E-9
         3237.,    2.368E-9
         3240.,    2.364E-9
         3260.,    2.549E-9
         3270.,    2.488E-9
         3280.,    2.261E-9
         3290.,    2.308E-9
         3300.,    2.435E-9
         3310.,    2.439E-9
         3320.,    2.438E-9
         3330.,    2.411E-9
         3340.,    2.360E-9
         3350.,    2.338E-9
         3360.,    2.468E-9
         3370.,    2.291E-9
         3380.,    2.334E-9
         3390.,    2.377E-9
         3400.,    2.354E-9
         3410.,    2.377E-9
         3420.,    2.394E-9
         3430.,    2.405E-9
         3440.,    2.403E-9
         3450.,    2.368E-9
         3460.,    2.381E-9
         3470.,    2.388E-9
         3480.,    2.396E-9
         3490.,    2.355E-9
         3500.,    2.385E-9
         3510.,    2.394E-9
         3520.,    2.476E-9
         3530.,    2.475E-9
         3540.,    2.539E-9
         3550.,    2.516E-9
         3560.,    2.461E-9
         3570.,    2.451E-9
         3580.,    2.408E-9
         3590.,    2.436E-9
         3600.,    2.506E-9
         3610.,    2.384E-9
         3620.,    2.372E-9
         3630.,    2.394E-9
         3640.,    2.378E-9
         3650.,    2.416E-9
         3660.,    2.385E-9
         3670.,    2.386E-9
         3680.,    2.359E-9
         3690.,    2.356E-9
         3700.,    2.411E-9
         3710.,    2.501E-9
         3720.,    2.686E-9
         3730.,    2.731E-9
         3740.,    3.109E-9
         3750.,    3.239E-9
         3760.,    3.511E-9
         3770.,    3.373E-9
         3780.,    3.980E-9
         3790.,    4.515E-9
         3800.,    3.692E-9
         3810.,    4.622E-9
         3820.,    5.535E-9
         3830.,    4.340E-9
         3840.,    3.594E-9
         3850.,    5.068E-9
         3860.,    6.366E-9
         3870.,    6.514E-9
         3880.,    5.193E-9
         3890.,    3.728E-9
         3900.,    4.413E-9
         3910.,    6.299E-9
         3920.,    7.216E-9
         3930.,    6.653E-9
         3940.,    6.493E-9
         3950.,    7.058E-9
         3960.,    5.790E-9
         3970.,    3.926E-9
         3980.,    4.518E-9
         3990.,    6.945E-9
         4000.,    7.615E-9
         4010.,    7.665E-9
         4020.,    7.871E-9
         4030.,    7.745E-9
         4040.,    7.633E-9
         4050.,    7.675E-9
         4060.,    7.538E-9
         4070.,    7.263E-9
         4080.,    6.780E-9
         4090.,    5.916E-9
         4100.,    4.154E-9
         4110.,    4.305E-9
         4120.,    6.088E-9
         4130.,    6.861E-9
         4140.,    7.096E-9
         4150.,    7.112E-9
         4160.,    7.116E-9
         4170.,    6.987E-9
         4180.,    6.866E-9
         4190.,    6.946E-9
         4200.,    6.994E-9
         4210.,    6.936E-9
         4220.,    6.854E-9
         4230.,    6.877E-9
         4240.,    6.856E-9
         4250.,    6.812E-9
         4260.,    6.841E-9
         4270.,    6.796E-9
         4280.,    6.663E-9
         4290.,    6.519E-9
         4300.,    6.252E-9
         4310.,    5.964E-9
         4320.,    5.809E-9
         4330.,    4.855E-9
         4340.,    3.510E-9
         4350.,    4.071E-9
         4360.,    5.510E-9
         4370.,    6.007E-9
         4380.,    6.169E-9
         4390.,    6.049E-9
         4400.,    5.937E-9
         4410.,    6.006E-9
         4420.,    6.063E-9
         4430.,    6.068E-9
         4440.,    5.981E-9
         4450.,    5.915E-9
         4460.,    6.015E-9
         4470.,    5.923E-9
         4480.,    5.852E-9
         4490.,    5.837E-9
         4500.,    5.908E-9
         4510.,    5.920E-9
         4520.,    5.862E-9
         4530.,    5.803E-9
         4540.,    5.762E-9
         4550.,    5.647E-9
         4560.,    5.570E-9
         4570.,    5.713E-9
         4580.,    5.631E-9
         4590.,    5.596E-9
         4600.,    5.685E-9
         4610.,    5.717E-9
         4620.,    5.631E-9
         4630.,    5.535E-9
         4640.,    5.618E-9
         4650.,    5.615E-9
         4660.,    5.540E-9
         4670.,    5.531E-9
         4680.,    5.548E-9
         4690.,    5.569E-9
         4700.,    5.491E-9
         4710.,    5.398E-9
         4720.,    5.479E-9
         4730.,    5.426E-9
         4740.,    5.433E-9
         4750.,    5.390E-9
         4760.,    5.276E-9
         4770.,    5.258E-9
         4780.,    5.251E-9
         4790.,    5.281E-9
         4800.,    5.198E-9
         4810.,    5.120E-9
         4820.,    5.047E-9
         4830.,    4.903E-9
         4840.,    4.545E-9
         4850.,    3.910E-9
         4860.,    2.897E-9
         4870.,    3.126E-9
         4880.,    4.166E-9
         4890.,    4.563E-9
         4900.,    4.760E-9
         4910.,    4.809E-9
         4920.,    4.698E-9
         4930.,    4.693E-9
         4940.,    4.719E-9
         4950.,    4.704E-9
         4960.,    4.708E-9
         4970.,    4.698E-9
         4980.,    4.723E-9
         4990.,    4.647E-9
         5000.,    4.606E-9
         5010.,    4.501E-9
         5020.,    4.504E-9
         5030.,    4.430E-9
         5040.,    4.465E-9
         5050.,    4.344E-9
         5060.,    4.365E-9
         5070.,    4.373E-9
         5080.,    4.382E-9
         5090.,    4.369E-9
         5100.,    4.339E-9
         5110.,    4.272E-9
         5120.,    4.309E-9
         5130.,    4.251E-9
         5140.,    4.268E-9
         5150.,    4.206E-9
         5160.,    4.181E-9
         5170.,    4.104E-9
         5180.,    4.084E-9
         5190.,    4.072E-9
         5200.,    4.081E-9
         5210.,    4.150E-9
         5220.,    4.098E-9
         5230.,    3.983E-9
         5240.,    3.981E-9
         5250.,    4.007E-9
         5260.,    3.984E-9
         5270.,    3.875E-9
         5280.,    3.877E-9
         5290.,    3.951E-9
         5300.,    3.990E-9
         5310.,    3.898E-9
         5320.,    3.830E-9
         5330.,    3.785E-9
         5340.,    3.817E-9
         5350.,    3.832E-9
         5360.,    3.830E-9
         5370.,    3.842E-9
         5380.,    3.850E-9
         5390.,    3.806E-9
         5400.,    3.765E-9
         5410.,    3.722E-9
         5420.,    3.834E-9
         5430.,    3.805E-9
         5440.,    3.810E-9
         5450.,    3.807E-9
         5460.,    3.793E-9
         5470.,    3.677E-9
         5480.,    3.671E-9
         5490.,    3.620E-9
         5500.,    3.731E-9
         5510.,    3.735E-9
         5520.,    3.733E-9
         5530.,    3.730E-9
         5540.,    3.677E-9
         5550.,    3.635E-9
         5560.,    3.626E-9
         5570.,    3.666E-9
         5580.,    3.618E-9
         5590.,    3.601E-9
         5600.,    3.599E-9
         5610.,    3.562E-9
         5620.,    3.528E-9
         5630.,    3.516E-9
         5640.,    3.503E-9
         5650.,    3.491E-9
         5660.,    3.485E-9
         5670.,    3.419E-9
         5680.,    3.420E-9
         5690.,    3.472E-9
         5700.,    3.443E-9
         5710.,    3.398E-9
         5720.,    3.392E-9
         5730.,    3.387E-9
         5740.,    3.359E-9
         5760.,    3.309E-9
         5780.,    3.256E-9
         5800.,    3.204E-9
         5820.,    3.152E-9
         5840.,    3.102E-9
         5860.,    3.052E-9
         5880.,    3.002E-9
         5900.,    2.953E-9
         5920.,    2.905E-9
         5940.,    2.857E-9
         5960.,    2.810E-9
         5980.,    2.762E-9
         6000.,    2.687E-9
         6020.,    2.786E-9
         6040.,    2.831E-9
         6060.,    2.842E-9
         6080.,    2.815E-9
         6100.,    2.801E-9
         6120.,    2.810E-9
         6140.,    2.730E-9
         6160.,    2.709E-9
         6180.,    2.702E-9
         6200.,    2.656E-9
         6220.,    2.657E-9
         6240.,    2.611E-9
         6260.,    2.583E-9
         6280.,    2.571E-9
         6300.,    2.545E-9
         6320.,    2.549E-9
         6340.,    2.473E-9
         6360.,    2.442E-9
         6380.,    2.455E-9
         6400.,    2.459E-9
         6420.,    2.438E-9
         6440.,    2.412E-9
         6460.,    2.387E-9
         6480.,    2.345E-9
         6500.,    2.312E-9
         6520.,    2.307E-9
         6540.,    2.228E-9
         6560.,    1.852E-9
         6580.,    1.869E-9
         6600.,    2.167E-9
         6620.,    2.250E-9
         6640.,    2.241E-9
         6660.,    2.197E-9
         6680.,    2.205E-9
         6700.,    2.149E-9
         6720.,    2.153E-9
         6740.,    2.143E-9
         6760.,    2.137E-9
         6780.,    2.154E-9
         6800.,    2.164E-9
         6820.,    2.100E-9
         6840.,    2.182E-9
         6860.,    2.097E-9
         6880.,    2.014E-9
         6900.,    1.990E-9
         6920.,    2.008E-9
         6940.,    2.019E-9
         6960.,    1.992E-9
         6980.,    1.984E-9
         7000.,    1.942E-9
         7020.,    1.928E-9
         7040.,    1.918E-9
         7060.,    1.884E-9
         7080.,    1.881E-9
         7100.,    1.874E-9
         7120.,    1.866E-9
         7140.,    1.854E-9
         7160.,    1.916E-9
         7180.,    1.919E-9
         7200.,    1.809E-9
         7220.,    1.780E-9
         7240.,    1.792E-9
         7260.,    1.749E-9
         7280.,    1.742E-9
         7300.,    1.751E-9
         7320.,    1.739E-9
         7340.,    1.703E-9
         7360.,    1.706E-9
         7380.,    1.708E-9
         7400.,    1.689E-9
         7420.,    1.647E-9
         7440.,    1.640E-9
         7460.,    1.649E-9
         7480.,    1.612E-9
         7500.,    1.604E-9
         7520.,    1.598E-9
         7540.,    1.578E-9
         7560.,    1.535E-9
         7580.,    1.681E-9
         7600.,    1.501E-9
         7620.,    1.361E-9
         7640.,    1.431E-9
         7660.,    1.455E-9
         7680.,    1.383E-9
         7700.,    1.508E-9
         7720.,    1.501E-9
         7740.,    1.514E-9
         7760.,    1.441E-9
         7780.,    1.462E-9
         7800.,    1.458E-9
         7820.,    1.461E-9
         7840.,    1.495E-9
         7860.,    1.472E-9
         7880.,    1.481E-9
         7900.,    1.437E-9
         7920.,    1.397E-9
         7940.,    1.406E-9
         7960.,    1.414E-9
         7980.,    1.377E-9
         8000.,    1.369E-9
         8020.,    1.391E-9
         8040.,    1.349E-9
         8060.,    1.368E-9
         8080.,    1.349E-9
         8100.,    1.365E-9
         8120.,    1.355E-9
         8140.,    1.374E-9
         8160.,    1.307E-9
         8180.,    1.266E-9
         8200.,    1.318E-9
         8220.,    1.279E-9
         8240.,    1.213E-9
         8260.,    1.261E-9
         8280.,    1.223E-9
         8300.,    1.267E-9
         8320.,    1.186E-9
         8340.,    1.235E-9
         8360.,    1.194E-9
         8380.,    1.232E-9
         8400.,    1.263E-9
         8420.,    1.234E-9
         8440.,    1.192E-9
         8460.,    1.158E-9
         8480.,    1.218E-9
         8500.,    1.173E-9
         8520.,    1.160E-9
         8540.,    1.163E-9
         8560.,    1.172E-9
         8580.,    1.237E-9
         8600.,    1.125E-9
         8620.,    1.077E-9
         8640.,    1.237E-9
         8660.,    1.096E-9
         8680.,    1.074E-9
         8700.,    1.200E-9
         8720.,    1.246E-9
         8740.,    1.089E-9
         8760.,    1.045E-9
         8780.,    1.203E-9
         8800.,    1.180E-9
         8820.,    1.206E-9
         8840.,    1.155E-9
         8860.,   9.812E-10
         8880.,   9.288E-10
         8900.,    1.123E-9
         8920.,    1.144E-9
         8940.,    1.227E-9
         8960.,    1.158E-9
         8980.,    1.150E-9
         9000.,    1.025E-9
         9020.,   9.187E-10
         9040.,    1.070E-9
         9060.,    1.073E-9
         9080.,    1.040E-9
         9100.,    1.085E-9
         9120.,    1.079E-9
         9140.,    1.085E-9
         9160.,    1.048E-9
         9180.,    1.076E-9
         9200.,    1.078E-9
         9220.,   9.086E-10
         9240.,   8.374E-10
         9260.,   9.821E-10
         9280.,    1.093E-9
         9300.,    1.063E-9
         9320.,    1.203E-9
         9340.,    1.076E-9
         9360.,   9.504E-10
         9380.,    1.055E-9
         9400.,    1.037E-9
         9420.,   9.791E-10
         9440.,   9.818E-10
         9460.,   9.720E-10
         9480.,   9.087E-10
         9500.,   9.820E-10
         9520.,   9.926E-10
         9540.,   8.501E-10
         9560.,   8.697E-10
         9580.,   8.457E-10
         9600.,   8.815E-10
         9620.,   9.088E-10
         9640.,   9.563E-10
         9660.,   9.298E-10
         9680.,   9.317E-10
         9700.,   9.106E-10
         9720.,   9.361E-10
         9740.,   9.155E-10
         9760.,   9.227E-10
         9780.,   9.250E-10
         9800.,   8.967E-10
         9820.,   8.867E-10
         9840.,   9.348E-10
         9860.,   9.192E-10
         9880.,   8.509E-10
         9900.,   8.885E-10
         9920.,   8.856E-10
         9940.,   8.503E-10
         9960.,   8.695E-10
         9980.,   8.434E-10
        10000.,   8.271E-10
        10020.,   8.296E-10
        10040.,   7.553E-10
        10060.,   7.183E-10
        10080.,   7.471E-10
        10100.,   8.292E-10
        10120.,   7.873E-10
        10140.,   8.081E-10
        10160.,   8.236E-10
        10180.,   7.742E-10
        10200.,   8.004E-10
        10220.,   7.650E-10
        10240.,   7.528E-10
        10260.,   8.218E-10
        10280.,   7.248E-10
        10300.,   7.507E-10
        10320.,   7.739E-10
        10340.,   7.838E-10
        10360.,   7.655E-10
        10380.,   7.207E-10
        10400.,   7.468E-10
        10420.,   7.572E-10
        10440.,   7.158E-10
        10460.,   7.216E-10
        10480.,   7.090E-10
        10500.,   6.638E-10
        10520.,   7.226E-10
        10540.,   7.010E-10
        10560.,   7.124E-10
        10580.,   6.869E-10
        10600.,   7.002E-10
        10800.,   6.641E-10
        11000.,   6.278E-10
        11200.,   5.918E-10
        11400.,   5.565E-10
        11600.,   5.224E-10
        11800.,   4.898E-10
        12000.,   4.588E-10
        12200.,   4.296E-10
        12400.,   4.023E-10
        12600.,   3.802E-10
        12800.,   3.441E-10
        13000.,   3.421E-10
        13200.,   3.259E-10
        13400.,   3.096E-10
        13600.,   2.940E-10
        13800.,   2.799E-10
        14000.,   2.671E-10
        14200.,   2.546E-10
        14400.,   2.421E-10
        14600.,   2.318E-10
        14800.,   2.214E-10
        15000.,   2.111E-10
        15200.,   2.018E-10
        15400.,   1.926E-10
        15600.,   1.848E-10
        15800.,   1.781E-10
        16000.,   1.729E-10
        16200.,   1.648E-10
        16400.,   1.572E-10
        16600.,   1.532E-10
        16800.,   1.424E-10
        17000.,   1.400E-10
        17200.,   1.354E-10
        17400.,   1.266E-10
        17600.,   1.242E-10
        17800.,   1.205E-10
        18000.,   1.155E-10
        18200.,   1.071E-10
        18400.,   1.063E-10
        18600.,   1.027E-10
        18800.,   9.479E-11
        19000.,   9.500E-11
        19200.,   9.142E-11
        19400.,   8.642E-11
        19600.,   8.441E-11
        19800.,   8.229E-11
        20000.,   7.880E-11
        20200.,   7.595E-11
        20400.,   7.321E-11
        20600.,   7.052E-11
        20800.,   6.809E-11
        21000.,   6.557E-11
        21200.,   6.325E-11
        21400.,   6.112E-11
        21600.,   5.722E-11
        21800.,   5.615E-11
        22000.,   5.519E-11
        22200.,   5.344E-11
        22400.,   5.174E-11
        22600.,   5.009E-11
        22800.,   4.855E-11
        23000.,   4.712E-11
        23200.,   4.569E-11
        23400.,   4.432E-11
        23600.,   4.301E-11
        23800.,   4.168E-11
        24000.,   4.042E-11
        24200.,   3.932E-11
        24400.,   3.805E-11
        24600.,   3.701E-11
        24800.,   3.591E-11
        25000.,   3.486E-11
        25200.,   3.382E-11
        25400.,   3.283E-11
        25600.,   3.184E-11
